
 ------------------------------------------------------------
     normal          Raman Scattering Plot
 ------------------------------------------------------------
 Excitation wavelength  514.50 nm
 Convolution lineshape is lorentzian  
 FWHM   20.00  1/cm
 ------------------------------------------------------------
 ------------------------------------------------------------
 # of frequencies :    36
 ------------------------------------------------------------
 #  freq [ 1/cm]  S [Ang**4/amu]
 ------------------------------------------------------------
   1    27.55        0.1673
   2    76.38        2.4519
   3    76.43        2.8168
   4   145.77        0.0490
   5   145.89        0.0622
   6   230.39        1.5266
   7   230.43        1.6856
   8   315.04        0.0091
   9   315.10        0.1252
  10   322.37       14.0562
  11   426.57        0.9459
  12   426.61        0.8980
  13   496.33        0.0669
  14   496.41        4.3051
  15   564.76        2.6719
  16   564.79        2.9183
  17   616.15        0.2693
  18   616.43        1.1973
  19   640.25        0.0106
  20   650.33        0.8215
  21   650.33        0.9830
  22   669.70        0.0008
  23   670.21        0.0110
  24   688.21       78.2567
  25   688.24       79.4409
  26   940.63       19.7421
  27  1217.97        0.9749
  28  1461.43       21.8653
  29  1983.33        0.0554
  30  2046.66     8261.9312
  31  2083.36    18516.8711
  32  2139.92        0.0344
  33  2204.27        0.0319
  34  2206.28     1218.0839
  35  3436.56        0.0238
  36  3440.64       15.7797
 ------------------------------------------------------------
   -28.91    0.1003E-01
   -25.37    0.1093E-01
   -21.84    0.1198E-01
   -18.30    0.1322E-01
   -14.76    0.1471E-01
   -11.23    0.1651E-01
    -7.69    0.1873E-01
    -4.15    0.2152E-01
    -0.62    0.2513E-01
     2.92    0.2991E-01
     6.46    0.3643E-01
     9.99    0.4565E-01
    13.53    0.5905E-01
    17.07    0.7879E-01
    20.60    0.1065    
    24.14    0.1376    
    27.68    0.1541    
    31.21    0.1425    
    34.75    0.1183    
    38.29    0.9897E-01
    41.82    0.8897E-01
    45.36    0.8728E-01
    48.90    0.9290E-01
    52.43    0.1061    
    55.97    0.1288    
    59.51    0.1649    
    63.04    0.2214    
    66.58    0.3078    
    70.12    0.4285    
    73.65    0.5526    
    77.19    0.5896    
    80.73    0.5003    
    84.26    0.3681    
    87.80    0.2602    
    91.34    0.1863    
    94.87    0.1373    
    98.41    0.1045    
   101.95    0.8189E-01
   105.48    0.6582E-01
   109.02    0.5408E-01
   112.55    0.4530E-01
   116.09    0.3860E-01
   119.63    0.3340E-01
   123.16    0.2933E-01
   126.70    0.2613E-01
   130.24    0.2365E-01
   133.77    0.2182E-01
   137.31    0.2058E-01
   140.85    0.1984E-01
   144.38    0.1918E-01
   147.92    0.1796E-01
   151.46    0.1621E-01
   154.99    0.1454E-01
   158.53    0.1321E-01
   162.07    0.1220E-01
   165.60    0.1144E-01
   169.14    0.1085E-01
   172.68    0.1041E-01
   176.21    0.1009E-01
   179.75    0.9887E-02
   183.29    0.9795E-02
   186.82    0.9822E-02
   190.36    0.9985E-02
   193.90    0.1031E-01
   197.43    0.1085E-01
   200.97    0.1166E-01
   204.51    0.1288E-01
   208.04    0.1468E-01
   211.58    0.1737E-01
   215.12    0.2146E-01
   218.65    0.2772E-01
   222.19    0.3700E-01
   225.73    0.4873E-01
   229.26    0.5752E-01
   232.80    0.5536E-01
   236.34    0.4454E-01
   239.87    0.3340E-01
   243.41    0.2527E-01
   246.95    0.1991E-01
   250.48    0.1644E-01
   254.02    0.1417E-01
   257.56    0.1270E-01
   261.09    0.1178E-01
   264.63    0.1125E-01
   268.17    0.1103E-01
   271.70    0.1108E-01
   275.24    0.1139E-01
   278.78    0.1197E-01
   282.31    0.1287E-01
   285.85    0.1415E-01
   289.39    0.1595E-01
   292.92    0.1845E-01
   296.46    0.2197E-01
   300.00    0.2700E-01
   303.53    0.3438E-01
   307.07    0.4543E-01
   310.61    0.6215E-01
   314.14    0.8658E-01
   317.68    0.1171    
   321.22    0.1398    
   324.75    0.1339    
   328.29    0.1054    
   331.83    0.7598E-01
   335.36    0.5441E-01
   338.90    0.4001E-01
   342.44    0.3046E-01
   345.97    0.2398E-01
   349.51    0.1946E-01
   353.05    0.1621E-01
   356.58    0.1381E-01
   360.12    0.1201E-01
   363.66    0.1062E-01
   367.19    0.9537E-02
   370.73    0.8685E-02
   374.27    0.8011E-02
   377.80    0.7478E-02
   381.34    0.7062E-02
   384.87    0.6745E-02
   388.41    0.6520E-02
   391.95    0.6382E-02
   395.48    0.6339E-02
   399.02    0.6403E-02
   402.56    0.6605E-02
   406.09    0.6996E-02
   409.63    0.7665E-02
   413.17    0.8756E-02
   416.70    0.1047E-01
   420.24    0.1290E-01
   423.78    0.1543E-01
   427.31    0.1623E-01
   430.85    0.1443E-01
   434.39    0.1173E-01
   437.92    0.9543E-02
   441.46    0.8071E-02
   445.00    0.7140E-02
   448.53    0.6570E-02
   452.07    0.6246E-02
   455.61    0.6102E-02
   459.14    0.6106E-02
   462.68    0.6249E-02
   466.22    0.6543E-02
   469.75    0.7023E-02
   473.29    0.7758E-02
   476.83    0.8865E-02
   480.36    0.1054E-01
   483.90    0.1310E-01
   487.44    0.1693E-01
   490.97    0.2202E-01
   494.51    0.2655E-01
   498.05    0.2681E-01
   501.58    0.2259E-01
   505.12    0.1758E-01
   508.66    0.1379E-01
   512.19    0.1130E-01
   515.73    0.9733E-02
   519.27    0.8768E-02
   522.80    0.8209E-02
   526.34    0.7941E-02
   529.88    0.7905E-02
   533.41    0.8083E-02
   536.95    0.8486E-02
   540.49    0.9165E-02
   544.02    0.1022E-01
   547.56    0.1182E-01
   551.10    0.1426E-01
   554.63    0.1795E-01
   558.17    0.2314E-01
   561.71    0.2872E-01
   565.24    0.3099E-01
   568.78    0.2779E-01
   572.32    0.2242E-01
   575.85    0.1798E-01
   579.39    0.1504E-01
   582.93    0.1326E-01
   586.46    0.1226E-01
   590.00    0.1179E-01
   593.54    0.1172E-01
   597.07    0.1198E-01
   600.61    0.1259E-01
   604.15    0.1358E-01
   607.68    0.1504E-01
   611.22    0.1697E-01
   614.76    0.1885E-01
   618.29    0.1978E-01
   621.83    0.1985E-01
   625.37    0.2005E-01
   628.90    0.2090E-01
   632.44    0.2250E-01
   635.98    0.2492E-01
   639.51    0.2828E-01
   643.05    0.3275E-01
   646.59    0.3834E-01
   650.12    0.4443E-01
   653.66    0.5063E-01
   657.19    0.5827E-01
   660.73    0.6929E-01
   664.27    0.8553E-01
   667.80    0.1095    
   671.34    0.1452    
   674.88    0.1994    
   678.41    0.2811    
   681.95    0.3946    
   685.49    0.5106    
   689.02    0.5451    
   692.56    0.4621    
   696.10    0.3395    
   699.63    0.2395    
   703.17    0.1710    
   706.71    0.1258    
   710.24    0.9544E-01
   713.78    0.7455E-01
   717.32    0.5971E-01
   720.85    0.4887E-01
   724.39    0.4075E-01
   727.93    0.3453E-01
   731.46    0.2966E-01
   735.00    0.2579E-01
   738.54    0.2267E-01
   742.07    0.2012E-01
   745.61    0.1800E-01
   749.15    0.1623E-01
   752.68    0.1473E-01
   756.22    0.1346E-01
   759.76    0.1237E-01
   763.29    0.1142E-01
   766.83    0.1060E-01
   770.37    0.9882E-02
   773.90    0.9251E-02
   777.44    0.8693E-02
   780.98    0.8198E-02
   784.51    0.7758E-02
   788.05    0.7365E-02
   791.59    0.7013E-02
   795.12    0.6697E-02
   798.66    0.6412E-02
   802.20    0.6156E-02
   805.73    0.5925E-02
   809.27    0.5716E-02
   812.81    0.5527E-02
   816.34    0.5356E-02
   819.88    0.5202E-02
   823.42    0.5063E-02
   826.95    0.4939E-02
   830.49    0.4827E-02
   834.03    0.4728E-02
   837.56    0.4641E-02
   841.10    0.4564E-02
   844.64    0.4499E-02
   848.17    0.4445E-02
   851.71    0.4402E-02
   855.25    0.4370E-02
   858.78    0.4350E-02
   862.32    0.4342E-02
   865.86    0.4347E-02
   869.39    0.4368E-02
   872.93    0.4404E-02
   876.47    0.4460E-02
   880.00    0.4538E-02
   883.54    0.4643E-02
   887.08    0.4781E-02
   890.61    0.4959E-02
   894.15    0.5188E-02
   897.69    0.5485E-02
   901.22    0.5870E-02
   904.76    0.6374E-02
   908.30    0.7046E-02
   911.83    0.7956E-02
   915.37    0.9217E-02
   918.91    0.1101E-01
   922.44    0.1363E-01
   925.98    0.1757E-01
   929.51    0.2353E-01
   933.05    0.3219E-01
   936.59    0.4253E-01
   940.12    0.4886E-01
   943.66    0.4507E-01
   947.20    0.3503E-01
   950.73    0.2561E-01
   954.27    0.1890E-01
   957.81    0.1444E-01
   961.34    0.1147E-01
   964.88    0.9450E-02
   968.42    0.8027E-02
   971.95    0.6997E-02
   975.49    0.6232E-02
   979.03    0.5649E-02
   982.56    0.5197E-02
   986.10    0.4839E-02
   989.64    0.4551E-02
   993.17    0.4317E-02
   996.71    0.4124E-02
  1000.25    0.3964E-02
  1003.78    0.3829E-02
  1007.32    0.3715E-02
  1010.86    0.3617E-02
  1014.39    0.3534E-02
  1017.93    0.3462E-02
  1021.47    0.3400E-02
  1025.00    0.3346E-02
  1028.54    0.3300E-02
  1032.08    0.3259E-02
  1035.61    0.3224E-02
  1039.15    0.3193E-02
  1042.69    0.3166E-02
  1046.22    0.3143E-02
  1049.76    0.3122E-02
  1053.30    0.3105E-02
  1056.83    0.3090E-02
  1060.37    0.3078E-02
  1063.91    0.3067E-02
  1067.44    0.3059E-02
  1070.98    0.3052E-02
  1074.52    0.3047E-02
  1078.05    0.3043E-02
  1081.59    0.3040E-02
  1085.13    0.3039E-02
  1088.66    0.3039E-02
  1092.20    0.3040E-02
  1095.74    0.3043E-02
  1099.27    0.3046E-02
  1102.81    0.3050E-02
  1106.35    0.3055E-02
  1109.88    0.3061E-02
  1113.42    0.3068E-02
  1116.96    0.3075E-02
  1120.49    0.3084E-02
  1124.03    0.3093E-02
  1127.57    0.3103E-02
  1131.10    0.3114E-02
  1134.64    0.3126E-02
  1138.18    0.3139E-02
  1141.71    0.3152E-02
  1145.25    0.3167E-02
  1148.79    0.3182E-02
  1152.32    0.3198E-02
  1155.86    0.3216E-02
  1159.40    0.3235E-02
  1162.93    0.3255E-02
  1166.47    0.3277E-02
  1170.01    0.3301E-02
  1173.54    0.3328E-02
  1177.08    0.3357E-02
  1180.62    0.3391E-02
  1184.15    0.3431E-02
  1187.69    0.3478E-02
  1191.23    0.3536E-02
  1194.76    0.3611E-02
  1198.30    0.3710E-02
  1201.83    0.3848E-02
  1205.37    0.4047E-02
  1208.91    0.4335E-02
  1212.44    0.4713E-02
  1215.98    0.5057E-02
  1219.52    0.5103E-02
  1223.05    0.4827E-02
  1226.59    0.4487E-02
  1230.13    0.4231E-02
  1233.66    0.4066E-02
  1237.20    0.3966E-02
  1240.74    0.3907E-02
  1244.27    0.3875E-02
  1247.81    0.3859E-02
  1251.35    0.3855E-02
  1254.88    0.3860E-02
  1258.42    0.3870E-02
  1261.96    0.3885E-02
  1265.49    0.3903E-02
  1269.03    0.3924E-02
  1272.57    0.3947E-02
  1276.10    0.3972E-02
  1279.64    0.3998E-02
  1283.18    0.4026E-02
  1286.71    0.4056E-02
  1290.25    0.4087E-02
  1293.79    0.4118E-02
  1297.32    0.4152E-02
  1300.86    0.4186E-02
  1304.40    0.4221E-02
  1307.93    0.4257E-02
  1311.47    0.4295E-02
  1315.01    0.4333E-02
  1318.54    0.4373E-02
  1322.08    0.4414E-02
  1325.62    0.4456E-02
  1329.15    0.4500E-02
  1332.69    0.4545E-02
  1336.23    0.4591E-02
  1339.76    0.4639E-02
  1343.30    0.4689E-02
  1346.84    0.4740E-02
  1350.37    0.4793E-02
  1353.91    0.4849E-02
  1357.45    0.4906E-02
  1360.98    0.4966E-02
  1364.52    0.5029E-02
  1368.06    0.5096E-02
  1371.59    0.5165E-02
  1375.13    0.5239E-02
  1378.67    0.5317E-02
  1382.20    0.5400E-02
  1385.74    0.5490E-02
  1389.28    0.5586E-02
  1392.81    0.5691E-02
  1396.35    0.5806E-02
  1399.89    0.5933E-02
  1403.42    0.6075E-02
  1406.96    0.6235E-02
  1410.50    0.6419E-02
  1414.03    0.6632E-02
  1417.57    0.6884E-02
  1421.11    0.7187E-02
  1424.64    0.7559E-02
  1428.18    0.8027E-02
  1431.72    0.8632E-02
  1435.25    0.9435E-02
  1438.79    0.1054E-01
  1442.33    0.1211E-01
  1445.86    0.1441E-01
  1449.40    0.1786E-01
  1452.94    0.2293E-01
  1456.47    0.2944E-01
  1460.01    0.3466E-01
  1463.55    0.3406E-01
  1467.08    0.2834E-01
  1470.62    0.2214E-01
  1474.15    0.1755E-01
  1477.69    0.1451E-01
  1481.23    0.1252E-01
  1484.76    0.1119E-01
  1488.30    0.1030E-01
  1491.84    0.9679E-02
  1495.37    0.9245E-02
  1498.91    0.8938E-02
  1502.45    0.8721E-02
  1505.98    0.8570E-02
  1509.52    0.8468E-02
  1513.06    0.8403E-02
  1516.59    0.8367E-02
  1520.13    0.8355E-02
  1523.67    0.8361E-02
  1527.20    0.8382E-02
  1530.74    0.8416E-02
  1534.28    0.8461E-02
  1537.81    0.8515E-02
  1541.35    0.8578E-02
  1544.89    0.8647E-02
  1548.42    0.8724E-02
  1551.96    0.8806E-02
  1555.50    0.8893E-02
  1559.03    0.8986E-02
  1562.57    0.9083E-02
  1566.11    0.9185E-02
  1569.64    0.9291E-02
  1573.18    0.9401E-02
  1576.72    0.9516E-02
  1580.25    0.9634E-02
  1583.79    0.9757E-02
  1587.33    0.9883E-02
  1590.86    0.1001E-01
  1594.40    0.1015E-01
  1597.94    0.1029E-01
  1601.47    0.1043E-01
  1605.01    0.1057E-01
  1608.55    0.1072E-01
  1612.08    0.1088E-01
  1615.62    0.1104E-01
  1619.16    0.1120E-01
  1622.69    0.1137E-01
  1626.23    0.1154E-01
  1629.77    0.1172E-01
  1633.30    0.1190E-01
  1636.84    0.1208E-01
  1640.38    0.1227E-01
  1643.91    0.1247E-01
  1647.45    0.1267E-01
  1650.99    0.1288E-01
  1654.52    0.1309E-01
  1658.06    0.1331E-01
  1661.60    0.1353E-01
  1665.13    0.1376E-01
  1668.67    0.1399E-01
  1672.21    0.1424E-01
  1675.74    0.1449E-01
  1679.28    0.1474E-01
  1682.82    0.1501E-01
  1686.35    0.1528E-01
  1689.89    0.1556E-01
  1693.43    0.1584E-01
  1696.96    0.1614E-01
  1700.50    0.1644E-01
  1704.04    0.1675E-01
  1707.57    0.1708E-01
  1711.11    0.1741E-01
  1714.65    0.1775E-01
  1718.18    0.1810E-01
  1721.72    0.1846E-01
  1725.26    0.1884E-01
  1728.79    0.1923E-01
  1732.33    0.1962E-01
  1735.87    0.2004E-01
  1739.40    0.2046E-01
  1742.94    0.2090E-01
  1746.47    0.2135E-01
  1750.01    0.2182E-01
  1753.55    0.2230E-01
  1757.08    0.2281E-01
  1760.62    0.2332E-01
  1764.16    0.2386E-01
  1767.69    0.2442E-01
  1771.23    0.2499E-01
  1774.77    0.2559E-01
  1778.30    0.2621E-01
  1781.84    0.2685E-01
  1785.38    0.2751E-01
  1788.91    0.2820E-01
  1792.45    0.2892E-01
  1795.99    0.2967E-01
  1799.52    0.3044E-01
  1803.06    0.3125E-01
  1806.60    0.3209E-01
  1810.13    0.3297E-01
  1813.67    0.3388E-01
  1817.21    0.3483E-01
  1820.74    0.3582E-01
  1824.28    0.3685E-01
  1827.82    0.3794E-01
  1831.35    0.3907E-01
  1834.89    0.4025E-01
  1838.43    0.4148E-01
  1841.96    0.4278E-01
  1845.50    0.4414E-01
  1849.04    0.4556E-01
  1852.57    0.4706E-01
  1856.11    0.4863E-01
  1859.65    0.5028E-01
  1863.18    0.5202E-01
  1866.72    0.5385E-01
  1870.26    0.5578E-01
  1873.79    0.5782E-01
  1877.33    0.5998E-01
  1880.87    0.6226E-01
  1884.40    0.6467E-01
  1887.94    0.6723E-01
  1891.48    0.6995E-01
  1895.01    0.7283E-01
  1898.55    0.7591E-01
  1902.09    0.7918E-01
  1905.62    0.8267E-01
  1909.16    0.8641E-01
  1912.70    0.9041E-01
  1916.23    0.9469E-01
  1919.77    0.9930E-01
  1923.31    0.1043    
  1926.84    0.1096    
  1930.38    0.1154    
  1933.92    0.1216    
  1937.45    0.1284    
  1940.99    0.1358    
  1944.53    0.1439    
  1948.06    0.1527    
  1951.60    0.1624    
  1955.14    0.1730    
  1958.67    0.1848    
  1962.21    0.1978    
  1965.75    0.2124    
  1969.28    0.2286    
  1972.82    0.2469    
  1976.36    0.2676    
  1979.89    0.2910    
  1983.43    0.3179    
  1986.97    0.3487    
  1990.50    0.3846    
  1994.04    0.4266    
  1997.58    0.4764    
  2001.11    0.5359    
  2004.65    0.6081    
  2008.19    0.6969    
  2011.72    0.8082    
  2015.26    0.9504    
  2018.79     1.136    
  2022.33     1.386    
  2025.87     1.731    
  2029.40     2.225    
  2032.94     2.950    
  2036.48     4.023    
  2040.01     5.519    
  2043.55     7.148    
  2047.09     7.910    
  2050.62     7.212    
  2054.16     5.967    
  2057.70     5.072    
  2061.23     4.741    
  2064.77     4.968    
  2068.31     5.796    
  2071.84     7.376    
  2075.38     9.896    
  2078.92     13.11    
  2082.45     15.36    
  2085.99     14.44    
  2089.53     11.22    
  2093.06     8.029    
  2096.60     5.715    
  2100.14     4.168    
  2103.67     3.136    
  2107.21     2.432    
  2110.75     1.936    
  2114.28     1.576    
  2117.82     1.308    
  2121.36     1.104    
  2124.89    0.9447    
  2128.43    0.8188    
  2131.97    0.7175    
  2135.50    0.6351    
  2139.04    0.5672    
  2142.58    0.5110    
  2146.11    0.4641    
  2149.65    0.4248    
  2153.19    0.3921    
  2156.72    0.3649    
  2160.26    0.3427    
  2163.80    0.3252    
  2167.33    0.3123    
  2170.87    0.3042    
  2174.41    0.3015    
  2177.94    0.3054    
  2181.48    0.3181    
  2185.02    0.3431    
  2188.55    0.3865    
  2192.09    0.4582    
  2195.63    0.5725    
  2199.16    0.7408    
  2202.70    0.9343    
  2206.24     1.030    
  2209.77    0.9248    
  2213.31    0.7180    
  2216.85    0.5345    
  2220.38    0.4046    
  2223.92    0.3172    
  2227.46    0.2577    
  2230.99    0.2158    
  2234.53    0.1854    
  2238.07    0.1625    
  2241.60    0.1447    
  2245.14    0.1306    
  2248.68    0.1191    
  2252.21    0.1095    
  2255.75    0.1014    
  2259.29    0.9452E-01
  2262.82    0.8850E-01
  2266.36    0.8321E-01
  2269.90    0.7853E-01
  2273.43    0.7434E-01
  2276.97    0.7056E-01
  2280.51    0.6714E-01
  2284.04    0.6402E-01
  2287.58    0.6116E-01
  2291.11    0.5853E-01
  2294.65    0.5610E-01
  2298.19    0.5385E-01
  2301.72    0.5175E-01
  2305.26    0.4979E-01
  2308.80    0.4796E-01
  2312.33    0.4624E-01
  2315.87    0.4463E-01
  2319.41    0.4311E-01
  2322.94    0.4167E-01
  2326.48    0.4032E-01
  2330.02    0.3903E-01
  2333.55    0.3781E-01
  2337.09    0.3666E-01
  2340.63    0.3556E-01
  2344.16    0.3451E-01
  2347.70    0.3352E-01
  2351.24    0.3256E-01
  2354.77    0.3166E-01
  2358.31    0.3079E-01
  2361.85    0.2996E-01
  2365.38    0.2916E-01
  2368.92    0.2840E-01
  2372.46    0.2767E-01
  2375.99    0.2697E-01
  2379.53    0.2629E-01
  2383.07    0.2564E-01
  2386.60    0.2502E-01
  2390.14    0.2442E-01
  2393.68    0.2384E-01
  2397.21    0.2329E-01
  2400.75    0.2275E-01
  2404.29    0.2224E-01
  2407.82    0.2174E-01
  2411.36    0.2125E-01
  2414.90    0.2079E-01
  2418.43    0.2034E-01
  2421.97    0.1990E-01
  2425.51    0.1948E-01
  2429.04    0.1908E-01
  2432.58    0.1868E-01
  2436.12    0.1830E-01
  2439.65    0.1793E-01
  2443.19    0.1757E-01
  2446.73    0.1722E-01
  2450.26    0.1689E-01
  2453.80    0.1656E-01
  2457.34    0.1624E-01
  2460.87    0.1593E-01
  2464.41    0.1564E-01
  2467.95    0.1534E-01
  2471.48    0.1506E-01
  2475.02    0.1479E-01
  2478.56    0.1452E-01
  2482.09    0.1426E-01
  2485.63    0.1401E-01
  2489.17    0.1376E-01
  2492.70    0.1352E-01
  2496.24    0.1329E-01
  2499.78    0.1306E-01
  2503.31    0.1284E-01
  2506.85    0.1263E-01
  2510.39    0.1242E-01
  2513.92    0.1221E-01
  2517.46    0.1201E-01
  2521.00    0.1182E-01
  2524.53    0.1163E-01
  2528.07    0.1144E-01
  2531.61    0.1126E-01
  2535.14    0.1108E-01
  2538.68    0.1091E-01
  2542.22    0.1074E-01
  2545.75    0.1058E-01
  2549.29    0.1042E-01
  2552.82    0.1026E-01
  2556.36    0.1011E-01
  2559.90    0.9957E-02
  2563.43    0.9811E-02
  2566.97    0.9667E-02
  2570.51    0.9527E-02
  2574.04    0.9390E-02
  2577.58    0.9256E-02
  2581.12    0.9125E-02
  2584.65    0.8996E-02
  2588.19    0.8870E-02
  2591.73    0.8747E-02
  2595.26    0.8627E-02
  2598.80    0.8509E-02
  2602.34    0.8393E-02
  2605.87    0.8280E-02
  2609.41    0.8169E-02
  2612.95    0.8060E-02
  2616.48    0.7954E-02
  2620.02    0.7849E-02
  2623.56    0.7747E-02
  2627.09    0.7647E-02
  2630.63    0.7548E-02
  2634.17    0.7452E-02
  2637.70    0.7357E-02
  2641.24    0.7264E-02
  2644.78    0.7173E-02
  2648.31    0.7084E-02
  2651.85    0.6996E-02
  2655.39    0.6910E-02
  2658.92    0.6826E-02
  2662.46    0.6743E-02
  2666.00    0.6661E-02
  2669.53    0.6582E-02
  2673.07    0.6503E-02
