
 ------------------------------------------------------------
     normal          Raman Scattering Plot
 ------------------------------------------------------------
 Excitation wavelength  514.50 nm
 Convolution lineshape is lorentzian  
 FWHM   20.00  1/cm
 ------------------------------------------------------------
 ------------------------------------------------------------
 # of frequencies :    54
 ------------------------------------------------------------
 #  freq [ 1/cm]  S [Ang**4/amu]
 ------------------------------------------------------------
   1    45.57     1805.2733
   2    71.46      260.8186
   3    71.48       87.3916
   4   104.35      121.9169
   5   106.97      795.4639
   6   147.65       21.2435
   7   147.67      108.0080
   8   194.55     9682.0438
   9   195.90      251.0644
  10   196.76      383.9879
  11   250.60        9.2803
  12   250.61       31.2768
  13   307.32     5565.8316
  14   307.62        2.4919
  15   360.23       60.6567
  16   360.24       31.9181
  17   412.19      326.3537
  18   432.97    58278.2536
  19   433.00      162.9634
  20   479.97     5428.4215
  21   480.00        1.6402
  22   525.05        7.7076
  23   525.14      350.0977
  24   569.14        6.7684
  25   569.15       10.9366
  26   608.89    13947.3972
  27   609.68      229.0134
  28   621.47      144.6957
  29   637.51      178.5396
  30   637.53     2239.2407
  31   657.10     1280.8555
  32   660.18       20.8847
  33   680.71      657.2754
  34   680.73      121.7228
  35   707.22      135.2795
  36   707.81     3136.5215
  37   742.39     6213.0115
  38   742.39      104.0775
  39   817.73      115.3785
  40  1003.02     4201.7364
  41  1178.70     4090.5592
  42  1338.25     1854.8635
  43  1476.32      195.2727
  44  1863.60   625555.5160
  45  1907.30     6739.3477
  46  1953.38     4141.8080
  47  2006.59    16862.8610
  48  2028.96      924.6972
  49  2062.32      460.1246
  50  2102.51    13924.4729
  51  2109.18   105575.6906
  52  2122.37     1046.1906
  53  3426.62   103262.1034
  54  3432.77     2525.8943
 ------------------------------------------------------------
   -10.91     18.00    
    -7.40     20.23    
    -3.89     22.93    
    -0.38     26.21    
     3.13     30.27    
     6.64     35.36    
    10.15     41.87    
    13.66     50.36    
    17.17     61.67    
    20.68     77.17    
    24.19     98.99    
    27.70     130.7    
    31.21     177.9    
    34.72     248.9    
    38.23     350.7    
    41.75     469.5    
    45.26     538.0    
    48.77     491.3    
    52.28     378.5    
    55.79     275.9    
    59.30     205.6    
    62.81     163.2    
    66.32     139.8    
    69.83     125.6    
    73.34     109.9    
    76.85     91.01    
    80.36     74.32    
    83.87     62.59    
    87.38     55.58    
    90.90     52.66    
    94.41     53.74    
    97.92     59.10    
   101.43     68.03    
   104.94     75.61    
   108.45     73.53    
   111.96     61.79    
   115.47     48.65    
   118.98     38.59    
   122.49     31.78    
   126.00     27.33    
   129.51     24.48    
   133.02     22.80    
   136.53     22.06    
   140.05     22.15    
   143.56     22.88    
   147.07     23.69    
   150.58     24.00    
   154.09     24.20    
   157.60     25.04    
   161.11     26.93    
   164.62     30.09    
   168.13     34.90    
   171.64     42.02    
   175.15     52.57    
   178.66     68.44    
   182.17     92.58    
   185.68     128.6    
   189.20     176.4    
   192.71     218.9    
   196.22     221.6    
   199.73     181.6    
   203.24     132.8    
   206.75     94.95    
   210.26     69.24    
   213.77     52.18    
   217.28     40.66    
   220.79     32.68    
   224.30     26.98    
   227.81     22.83    
   231.32     19.73    
   234.83     17.39    
   238.35     15.62    
   241.86     14.29    
   245.37     13.31    
   248.88     12.56    
   252.39     11.92    
   255.90     11.35    
   259.41     10.93    
   262.92     10.71    
   266.43     10.69    
   269.94     10.89    
   273.45     11.33    
   276.96     12.09    
   280.47     13.25    
   283.98     15.01    
   287.50     17.64    
   291.01     21.62    
   294.52     27.71    
   298.03     36.86    
   301.54     49.26    
   305.05     61.02    
   308.56     63.00    
   312.07     53.13    
   315.58     40.23    
   319.09     30.05    
   322.60     23.17    
   326.11     18.67    
   329.62     15.72    
   333.13     13.75    
   336.65     12.45    
   340.16     11.60    
   343.67     11.09    
   347.18     10.85    
   350.69     10.85    
   354.20     11.06    
   357.71     11.41    
   361.22     11.79    
   364.73     12.16    
   368.24     12.65    
   371.75     13.35    
   375.26     14.31    
   378.77     15.55    
   382.28     17.14    
   385.79     19.14    
   389.31     21.68    
   392.82     24.91    
   396.33     29.10    
   399.84     34.60    
   403.35     41.98    
   406.86     52.03    
   410.37     65.84    
   413.88     85.17    
   417.39     113.4    
   420.90     156.1    
   424.41     219.4    
   427.92     301.5    
   431.43     368.7    
   434.94     363.3    
   438.46     290.9    
   441.97     210.3    
   445.48     149.8    
   448.99     109.3    
   452.50     82.77    
   456.01     65.28    
   459.52     53.78    
   463.03     46.54    
   466.54     42.71    
   470.05     42.02    
   473.56     44.24    
   477.07     47.58    
   480.58     47.31    
   484.09     41.03    
   487.61     32.66    
   491.12     25.71    
   494.63     20.73    
   498.14     17.23    
   501.65     14.75    
   505.16     12.95    
   508.67     11.63    
   512.18     10.68    
   515.69     10.05    
   519.20     9.694    
   522.71     9.457    
   526.22     9.043    
   529.73     8.352    
   533.24     7.631    
   536.76     7.053    
   540.27     6.634    
   543.78     6.343    
   547.29     6.153    
   550.80     6.050    
   554.31     6.026    
   557.82     6.083    
   561.33     6.228    
   564.84     6.473    
   568.35     6.830    
   571.86     7.320    
   575.37     7.997    
   578.88     8.947    
   582.39     10.29    
   585.91     12.22    
   589.42     15.04    
   592.93     19.23    
   596.44     25.59    
   599.95     35.04    
   603.46     47.59    
   606.97     58.83    
   610.48     59.77    
   613.99     49.76    
   617.50     37.71    
   621.01     28.71    
   624.52     23.07    
   628.03     20.07    
   631.54     19.07    
   635.06     19.02    
   638.57     18.21    
   642.08     16.02    
   645.59     13.75    
   649.10     12.37    
   652.61     11.88    
   656.12     11.61    
   659.63     10.71    
   663.14     9.352    
   666.65     8.218    
   670.16     7.607    
   673.67     7.511    
   677.18     7.757    
   680.69     7.925    
   684.21     7.701    
   687.72     7.405    
   691.23     7.481    
   694.74     8.149    
   698.25     9.553    
   701.76     11.71    
   705.27     13.95    
   708.78     14.58    
   712.29     13.05    
   715.80     10.98    
   719.31     9.588    
   722.82     9.127    
   726.33     9.595    
   729.84     11.09    
   733.35     13.84    
   736.87     17.77    
   740.38     21.38    
   743.89     21.50    
   747.40     17.78    
   750.91     13.27    
   754.42     9.762    
   757.93     7.364    
   761.44     5.755    
   764.95     4.654    
   768.46     3.877    
   771.97     3.312    
   775.48     2.888    
   778.99     2.563    
   782.50     2.308    
   786.02     2.105    
   789.53     1.941    
   793.04     1.809    
   796.55     1.702    
   800.06     1.620    
   803.57     1.561    
   807.08     1.527    
   810.59     1.522    
   814.10     1.534    
   817.61     1.518    
   821.12     1.438    
   824.63     1.324    
   828.14     1.222    
   831.65     1.142    
   835.17     1.080    
   838.68     1.031    
   842.19    0.9902    
   845.70    0.9558    
   849.21    0.9260    
   852.72    0.8998    
   856.23    0.8764    
   859.74    0.8553    
   863.25    0.8363    
   866.76    0.8191    
   870.27    0.8033    
   873.78    0.7891    
   877.29    0.7761    
   880.80    0.7643    
   884.32    0.7536    
   887.83    0.7441    
   891.34    0.7357    
   894.85    0.7283    
   898.36    0.7220    
   901.87    0.7169    
   905.38    0.7128    
   908.89    0.7100    
   912.40    0.7084    
   915.91    0.7082    
   919.42    0.7095    
   922.93    0.7125    
   926.44    0.7174    
   929.95    0.7245    
   933.47    0.7341    
   936.98    0.7467    
   940.49    0.7628    
   944.00    0.7833    
   947.51    0.8091    
   951.02    0.8415    
   954.53    0.8824    
   958.04    0.9341    
   961.55     1.000    
   965.06     1.085    
   968.57     1.197    
   972.08     1.345    
   975.59     1.547    
   979.10     1.828    
   982.62     2.230    
   986.13     2.823    
   989.64     3.714    
   993.15     5.053    
   996.66     6.912    
  1000.17     8.839    
  1003.68     9.478    
  1007.19     8.172    
  1010.70     6.149    
  1014.21     4.470    
  1017.72     3.311    
  1021.23     2.542    
  1024.74     2.026    
  1028.25     1.669    
  1031.77     1.416    
  1035.28     1.231    
  1038.79     1.093    
  1042.30    0.9865    
  1045.81    0.9036    
  1049.32    0.8379    
  1052.83    0.7850    
  1056.34    0.7421    
  1059.85    0.7069    
  1063.36    0.6779    
  1066.87    0.6539    
  1070.38    0.6340    
  1073.89    0.6176    
  1077.40    0.6043    
  1080.92    0.5935    
  1084.43    0.5851    
  1087.94    0.5789    
  1091.45    0.5748    
  1094.96    0.5727    
  1098.47    0.5725    
  1101.98    0.5745    
  1105.49    0.5786    
  1109.00    0.5851    
  1112.51    0.5944    
  1116.02    0.6067    
  1119.53    0.6227    
  1123.04    0.6431    
  1126.55    0.6688    
  1130.06    0.7013    
  1133.58    0.7425    
  1137.09    0.7950    
  1140.60    0.8626    
  1144.11    0.9509    
  1147.62     1.068    
  1151.13     1.227    
  1154.64     1.448    
  1158.15     1.763    
  1161.66     2.227    
  1165.17     2.923    
  1168.68     3.970    
  1172.19     5.431    
  1175.70     6.977    
  1179.21     7.551    
  1182.73     6.567    
  1186.24     4.964    
  1189.75     3.615    
  1193.26     2.681    
  1196.77     2.061    
  1200.28     1.646    
  1203.79     1.360    
  1207.30     1.158    
  1210.81     1.010    
  1214.32    0.9001    
  1217.83    0.8162    
  1221.34    0.7509    
  1224.85    0.6994    
  1228.36    0.6582    
  1231.88    0.6250    
  1235.39    0.5979    
  1238.90    0.5758    
  1242.41    0.5577    
  1245.92    0.5428    
  1249.43    0.5308    
  1252.94    0.5211    
  1256.45    0.5135    
  1259.96    0.5078    
  1263.47    0.5039    
  1266.98    0.5016    
  1270.49    0.5010    
  1274.00    0.5021    
  1277.51    0.5050    
  1281.03    0.5098    
  1284.54    0.5170    
  1288.05    0.5268    
  1291.56    0.5400    
  1295.07    0.5572    
  1298.58    0.5798    
  1302.09    0.6095    
  1305.60    0.6490    
  1309.11    0.7023    
  1312.62    0.7756    
  1316.13    0.8792    
  1319.64     1.029    
  1323.15     1.253    
  1326.66     1.591    
  1330.18     2.085    
  1333.69     2.701    
  1337.20     3.148    
  1340.71     3.021    
  1344.22     2.453    
  1347.73     1.871    
  1351.24     1.444    
  1354.75     1.160    
  1358.26    0.9707    
  1361.77    0.8430    
  1365.28    0.7544    
  1368.79    0.6912    
  1372.30    0.6451    
  1375.81    0.6109    
  1379.33    0.5851    
  1382.84    0.5654    
  1386.35    0.5502    
  1389.86    0.5386    
  1393.37    0.5297    
  1396.88    0.5230    
  1400.39    0.5181    
  1403.90    0.5146    
  1407.41    0.5123    
  1410.92    0.5111    
  1414.43    0.5108    
  1417.94    0.5113    
  1421.45    0.5127    
  1424.96    0.5147    
  1428.48    0.5175    
  1431.99    0.5211    
  1435.50    0.5255    
  1439.01    0.5308    
  1442.52    0.5373    
  1446.03    0.5452    
  1449.54    0.5550    
  1453.05    0.5676    
  1456.56    0.5842    
  1460.07    0.6069    
  1463.58    0.6390    
  1467.09    0.6848    
  1470.60    0.7448    
  1474.11    0.8017    
  1477.62    0.8152    
  1481.14    0.7775    
  1484.65    0.7274    
  1488.16    0.6896    
  1491.67    0.6663    
  1495.18    0.6535    
  1498.69    0.6476    
  1502.20    0.6462    
  1505.71    0.6477    
  1509.22    0.6513    
  1512.73    0.6565    
  1516.24    0.6629    
  1519.75    0.6702    
  1523.26    0.6783    
  1526.77    0.6872    
  1530.29    0.6966    
  1533.80    0.7067    
  1537.31    0.7173    
  1540.82    0.7285    
  1544.33    0.7402    
  1547.84    0.7524    
  1551.35    0.7652    
  1554.86    0.7786    
  1558.37    0.7925    
  1561.88    0.8069    
  1565.39    0.8220    
  1568.90    0.8377    
  1572.41    0.8540    
  1575.92    0.8710    
  1579.44    0.8887    
  1582.95    0.9071    
  1586.46    0.9262    
  1589.97    0.9461    
  1593.48    0.9669    
  1596.99    0.9885    
  1600.50     1.011    
  1604.01     1.035    
  1607.52     1.059    
  1611.03     1.085    
  1614.54     1.111    
  1618.05     1.139    
  1621.56     1.168    
  1625.07     1.198    
  1628.59     1.230    
  1632.10     1.264    
  1635.61     1.298    
  1639.12     1.335    
  1642.63     1.373    
  1646.14     1.413    
  1649.65     1.455    
  1653.16     1.500    
  1656.67     1.546    
  1660.18     1.595    
  1663.69     1.647    
  1667.20     1.701    
  1670.71     1.758    
  1674.22     1.819    
  1677.74     1.883    
  1681.25     1.951    
  1684.76     2.022    
  1688.27     2.098    
  1691.78     2.179    
  1695.29     2.265    
  1698.80     2.356    
  1702.31     2.453    
  1705.82     2.557    
  1709.33     2.668    
  1712.84     2.786    
  1716.35     2.913    
  1719.86     3.050    
  1723.37     3.196    
  1726.89     3.354    
  1730.40     3.525    
  1733.91     3.709    
  1737.42     3.909    
  1740.93     4.126    
  1744.44     4.362    
  1747.95     4.619    
  1751.46     4.901    
  1754.97     5.210    
  1758.48     5.550    
  1761.99     5.925    
  1765.50     6.340    
  1769.01     6.802    
  1772.52     7.317    
  1776.04     7.894    
  1779.55     8.543    
  1783.06     9.276    
  1786.57     10.11    
  1790.08     11.06    
  1793.59     12.16    
  1797.10     13.42    
  1800.61     14.90    
  1804.12     16.64    
  1807.63     18.70    
  1811.14     21.16    
  1814.65     24.15    
  1818.16     27.81    
  1821.67     32.36    
  1825.19     38.11    
  1828.70     45.49    
  1832.21     55.19    
  1835.72     68.20    
  1839.23     86.15    
  1842.74     111.6    
  1846.25     148.8    
  1849.76     204.6    
  1853.27     288.4    
  1856.78     406.8    
  1860.29     536.9    
  1863.80     595.4    
  1867.31     523.5    
  1870.82     391.7    
  1874.33     277.3    
  1877.85     197.4    
  1881.36     144.5    
  1884.87     109.2    
  1888.38     85.13    
  1891.89     68.39    
  1895.40     56.60    
  1898.91     48.34    
  1902.42     42.58    
  1905.93     38.13    
  1909.44     33.59    
  1912.95     28.85    
  1916.46     24.68    
  1919.97     21.36    
  1923.48     18.78    
  1927.00     16.76    
  1930.51     15.18    
  1934.02     13.95    
  1937.53     13.04    
  1941.04     12.46    
  1944.55     12.22    
  1948.06     12.30    
  1951.57     12.38    
  1955.08     11.87    
  1958.59     10.74    
  1962.10     9.575    
  1965.61     8.670    
  1969.12     8.042    
  1972.63     7.637    
  1976.15     7.418    
  1979.66     7.378    
  1983.17     7.536    
  1986.68     7.950    
  1990.19     8.728    
  1993.70     10.05    
  1997.21     12.14    
  2000.72     15.07    
  2004.23     17.90    
  2007.74     18.40    
  2011.25     15.98    
  2014.76     12.79    
  2018.27     10.30    
  2021.78     8.695    
  2025.30     7.715    
  2028.81     7.054    
  2032.32     6.487    
  2035.83     6.011    
  2039.34     5.687    
  2042.85     5.519    
  2046.36     5.485    
  2049.87     5.573    
  2053.38     5.782    
  2056.89     6.115    
  2060.40     6.553    
  2063.91     7.061    
  2067.42     7.668    
  2070.93     8.487    
  2074.45     9.631    
  2077.96     11.23    
  2081.47     13.46    
  2084.98     16.63    
  2088.49     21.23    
  2092.00     28.05    
  2095.51     38.20    
  2099.02     52.66    
  2102.53     70.74    
  2106.04     87.71    
  2109.55     92.70    
  2113.06     79.75    
  2116.57     59.71    
  2120.08     42.92    
  2123.60     31.17    
  2127.11     23.19    
  2130.62     17.74    
  2134.13     13.95    
  2137.64     11.25    
  2141.15     9.283    
  2144.66     7.807    
  2148.17     6.673    
  2151.68     5.785    
  2155.19     5.076    
  2158.70     4.501    
  2162.21     4.027    
  2165.72     3.633    
  2169.23     3.301    
  2172.75     3.018    
  2176.26     2.775    
  2179.77     2.565    
  2183.28     2.381    
  2186.79     2.220    
  2190.30     2.077    
  2193.81     1.950    
  2197.32     1.837    
  2200.83     1.735    
  2204.34     1.643    
  2207.85     1.559    
  2211.36     1.483    
  2214.87     1.414    
  2218.38     1.350    
  2221.89     1.292    
  2225.41     1.238    
  2228.92     1.188    
  2232.43     1.141    
  2235.94     1.098    
  2239.45     1.058    
  2242.96     1.020    
  2246.47    0.9853    
  2249.98    0.9523    
  2253.49    0.9214    
  2257.00    0.8922    
  2260.51    0.8647    
  2264.02    0.8388    
  2267.53    0.8142    
  2271.04    0.7910    
  2274.56    0.7689    
  2278.07    0.7479    
  2281.58    0.7280    
  2285.09    0.7090    
  2288.60    0.6910    
  2292.11    0.6737    
  2295.62    0.6572    
  2299.13    0.6414    
  2302.64    0.6264    
  2306.15    0.6119    
  2309.66    0.5980    
  2313.17    0.5847    
  2316.68    0.5720    
  2320.19    0.5597    
  2323.71    0.5479    
  2327.22    0.5365    
  2330.73    0.5256    
  2334.24    0.5150    
  2337.75    0.5049    
  2341.26    0.4950    
  2344.77    0.4855    
  2348.28    0.4764    
  2351.79    0.4675    
  2355.30    0.4590    
  2358.81    0.4507    
  2362.32    0.4426    
  2365.83    0.4349    
  2369.34    0.4273    
  2372.86    0.4200    
  2376.37    0.4129    
  2379.88    0.4061    
  2383.39    0.3994    
  2386.90    0.3929    
  2390.41    0.3866    
  2393.92    0.3805    
  2397.43    0.3745    
  2400.94    0.3687    
  2404.45    0.3631    
  2407.96    0.3576    
  2411.47    0.3523    
  2414.98    0.3471    
  2418.49    0.3420    
  2422.01    0.3371    
  2425.52    0.3323    
  2429.03    0.3276    
  2432.54    0.3230    
  2436.05    0.3185    
  2439.56    0.3142    
  2443.07    0.3099    
  2446.58    0.3058    
  2450.09    0.3017    
  2453.60    0.2978    
  2457.11    0.2939    
  2460.62    0.2901    
  2464.13    0.2864    
  2467.64    0.2828    
  2471.16    0.2793    
  2474.67    0.2758    
  2478.18    0.2724    
  2481.69    0.2691    
  2485.20    0.2659    
  2488.71    0.2627    
  2492.22    0.2596    
  2495.73    0.2566    
  2499.24    0.2536    
  2502.75    0.2507    
  2506.26    0.2478    
  2509.77    0.2450    
  2513.28    0.2423    
  2516.79    0.2396    
  2520.31    0.2370    
  2523.82    0.2344    
  2527.33    0.2318    
  2530.84    0.2294    
  2534.35    0.2269    
  2537.86    0.2245    
  2541.37    0.2222    
  2544.88    0.2199    
  2548.39    0.2176    
  2551.90    0.2154    
  2555.41    0.2132    
  2558.92    0.2111    
  2562.43    0.2090    
  2565.94    0.2069    
  2569.45    0.2049    
  2572.97    0.2029    
  2576.48    0.2009    
  2579.99    0.1990    
  2583.50    0.1971    
  2587.01    0.1953    
  2590.52    0.1934    
  2594.03    0.1917    
  2597.54    0.1899    
