
 ------------------------------------------------------------
     normal          Raman Scattering Plot
 ------------------------------------------------------------
 Excitation wavelength  514.50 nm
 Convolution lineshape is lorentzian  
 FWHM   20.00  1/cm
 ------------------------------------------------------------
 ------------------------------------------------------------
 # of frequencies :    54
 ------------------------------------------------------------
 #  freq [ 1/cm]  S [Ang**4/amu]
 ------------------------------------------------------------
   1    12.45      677.8748
   2    34.49     2291.3989
   3    34.53       22.0818
   4    67.03      193.4195
   5    67.11       49.6183
   6   109.09       11.2716
   7   109.12        3.6035
   8   158.86      985.6151
   9   158.94       69.1247
  10   214.38        2.9623
  11   214.40       96.4442
  12   216.44      370.3198
  13   272.63      374.8234
  14   272.63       24.9680
  15   326.46        2.3967
  16   326.47       26.8200
  17   403.43    11476.7356
  18   403.49      714.2218
  19   430.26      184.5032
  20   451.13        9.3678
  21   451.17        1.6797
  22   497.51      386.8177
  23   497.52       28.3627
  24   543.41        2.8481
  25   543.44        5.4375
  26   586.90      215.9654
  27   586.96      982.9164
  28   623.21       17.2977
  29   623.23       59.0785
  30   639.90     2644.8048
  31   650.63      714.4900
  32   650.77     3303.3180
  33   670.18     6715.8246
  34   670.20      153.0144
  35   688.60     2059.8692
  36   688.65       79.0970
  37   720.23     1048.0528
  38   720.26      111.9200
  39   851.24    11202.1597
  40  1047.14     1427.2768
  41  1230.15      452.7139
  42  1400.97     1072.4161
  43  1549.01      146.3715
  44  1946.23   612653.0006
  45  1962.40    25517.5605
  46  2013.15      801.9528
  47  2071.26     7403.2159
  48  2112.78    11554.8257
  49  2137.18      777.9354
  50  2182.43    29255.8093
  51  2187.35    63212.9416
  52  2205.41     1845.0908
  53  3431.14     6194.9018
  54  3434.89    56070.3873
 ------------------------------------------------------------
   -44.01     94.61    
   -40.46     106.5    
   -36.92     120.8    
   -33.37     138.2    
   -29.82     159.7    
   -26.28     186.6    
   -22.73     220.9    
   -19.19     265.5    
   -15.64     324.8    
   -12.09     405.9    
    -8.55     520.0    
    -5.00     685.5    
    -1.46     932.1    
     2.09     1302.    
     5.64     1824.    
     9.18     2405.    
    12.73     2688.    
    16.27     2439.    
    19.82     1980.    
    23.37     1654.    
    26.91     1543.    
    30.46     1586.    
    34.00     1600.    
    37.55     1404.    
    41.10     1081.    
    44.64     795.4    
    48.19     591.3    
    51.73     453.6    
    55.28     361.2    
    58.83     298.9    
    62.37     256.8    
    65.92     225.2    
    69.46     195.0    
    73.01     165.3    
    76.56     139.9    
    80.10     119.8    
    83.65     104.2    
    87.19     91.76    
    90.74     81.71    
    94.29     73.43    
    97.83     66.55    
   101.38     60.79    
   104.92     55.92    
   108.47     51.69    
   112.02     47.86    
   115.56     44.43    
   119.11     41.46    
   122.65     38.96    
   126.20     36.90    
   129.75     35.27    
   133.29     34.12    
   136.84     33.52    
   140.38     33.65    
   143.93     34.80    
   147.48     37.46    
   151.02     42.10    
   154.57     48.15    
   158.11     51.91    
   161.66     48.82    
   165.21     41.10    
   168.75     33.67    
   172.30     28.18    
   175.84     24.37    
   179.39     21.69    
   182.94     19.75    
   186.48     18.33    
   190.03     17.29    
   193.57     16.55    
   197.12     16.13    
   200.67     16.04    
   204.21     16.41    
   207.76     17.33    
   211.30     18.68    
   214.85     19.60    
   218.40     18.84    
   221.94     16.72    
   225.49     14.56    
   229.03     12.91    
   232.58     11.73    
   236.13     10.89    
   239.67     10.28    
   243.22     9.829    
   246.76     9.512    
   250.31     9.317    
   253.86     9.257    
   257.40     9.369    
   260.95     9.721    
   264.49     10.39    
   268.04     11.30    
   271.59     11.93    
   275.13     11.51    
   278.68     10.30    
   282.22     9.083    
   285.77     8.174    
   289.32     7.537    
   292.86     7.087    
   296.41     6.761    
   299.95     6.518    
   303.50     6.336    
   307.05     6.200    
   310.59     6.105    
   314.14     6.049    
   317.68     6.035    
   321.23     6.059    
   324.78     6.097    
   328.32     6.107    
   331.87     6.091    
   335.41     6.097    
   338.96     6.153    
   342.51     6.264    
   346.05     6.434    
   349.60     6.669    
   353.14     6.983    
   356.69     7.392    
   360.24     7.925    
   363.78     8.621    
   367.33     9.538    
   370.87     10.76    
   374.42     12.42    
   377.97     14.72    
   381.51     18.00    
   385.06     22.79    
   388.60     29.98    
   392.15     40.90    
   395.70     56.85    
   399.24     76.21    
   402.79     88.72    
   406.33     82.41    
   409.88     63.82    
   413.43     46.11    
   416.97     33.49    
   420.52     25.20    
   424.06     19.82    
   427.61     16.24    
   431.16     13.61    
   434.70     11.47    
   438.25     9.757    
   441.79     8.442    
   445.34     7.447    
   448.89     6.681    
   452.43     6.070    
   455.98     5.571    
   459.52     5.162    
   463.07     4.833    
   466.62     4.572    
   470.16     4.369    
   473.71     4.222    
   477.25     4.135    
   480.80     4.121    
   484.34     4.203    
   487.89     4.414    
   491.44     4.768    
   494.98     5.130    
   498.53     5.153    
   502.07     4.720    
   505.62     4.159    
   509.17     3.706    
   512.71     3.387    
   516.26     3.167    
   519.80     3.012    
   523.35     2.902    
   526.90     2.823    
   530.44     2.769    
   533.99     2.736    
   537.53     2.721    
   541.08     2.722    
   544.63     2.732    
   548.17     2.752    
   551.72     2.791    
   555.26     2.858    
   558.81     2.963    
   562.36     3.118    
   565.90     3.347    
   569.45     3.684    
   572.99     4.191    
   576.54     4.951    
   580.09     6.025    
   583.63     7.222    
   587.18     7.813    
   590.72     7.290    
   594.27     6.284    
   597.82     5.474    
   601.36     5.010    
   604.91     4.836    
   608.45     4.894    
   612.00     5.160    
   615.55     5.647    
   619.09     6.393    
   622.64     7.457    
   626.18     8.954    
   629.73     11.15    
   633.28     14.31    
   636.82     18.19    
   640.37     21.59    
   643.91     23.84    
   647.46     25.78    
   651.01     26.64    
   654.55     25.41    
   658.10     24.17    
   661.64     25.12    
   665.19     28.44    
   668.74     31.60    
   672.28     30.51    
   675.83     25.64    
   679.37     20.98    
   682.92     18.25    
   686.47     16.83    
   690.01     15.08    
   693.56     12.48    
   697.10     9.986    
   700.65     8.176    
   704.20     7.049    
   707.74     6.481    
   711.29     6.394    
   714.83     6.695    
   718.38     7.023    
   721.93     6.729    
   725.47     5.768    
   729.02     4.731    
   732.56     3.930    
   736.11     3.366    
   739.66     2.970    
   743.20     2.685    
   746.75     2.475    
   750.29     2.315    
   753.84     2.193    
   757.39     2.098    
   760.93     2.024    
   764.48     1.969    
   768.02     1.928    
   771.57     1.901    
   775.12     1.887    
   778.66     1.886    
   782.21     1.897    
   785.75     1.921    
   789.30     1.961    
   792.85     2.018    
   796.39     2.095    
   799.94     2.197    
   803.48     2.330    
   807.03     2.503    
   810.58     2.727    
   814.12     3.020    
   817.67     3.410    
   821.21     3.934    
   824.76     4.657    
   828.31     5.676    
   831.85     7.154    
   835.40     9.357    
   838.94     12.70    
   842.49     17.68    
   846.04     24.21    
   849.58     29.73    
   853.13     29.50    
   856.67     23.75    
   860.22     17.25    
   863.77     12.36    
   867.31     9.078    
   870.86     6.905    
   874.40     5.436    
   877.95     4.413    
   881.50     3.678    
   885.04     3.135    
   888.59     2.723    
   892.13     2.404    
   895.68     2.153    
   899.23     1.950    
   902.77     1.785    
   906.32     1.648    
   909.86     1.534    
   913.41     1.437    
   916.96     1.354    
   920.50     1.283    
   924.05     1.221    
   927.59     1.167    
   931.14     1.119    
   934.69     1.077    
   938.23     1.040    
   941.78     1.006    
   945.32    0.9764    
   948.87    0.9497    
   952.42    0.9257    
   955.96    0.9041    
   959.51    0.8848    
   963.05    0.8676    
   966.60    0.8523    
   970.15    0.8388    
   973.69    0.8271    
   977.24    0.8173    
   980.78    0.8092    
   984.33    0.8031    
   987.88    0.7991    
   991.42    0.7975    
   994.97    0.7986    
   998.51    0.8029    
  1002.06    0.8112    
  1005.61    0.8247    
  1009.15    0.8447    
  1012.70    0.8738    
  1016.24    0.9153    
  1019.79    0.9747    
  1023.34     1.061    
  1026.88     1.187    
  1030.43     1.378    
  1033.97     1.669    
  1037.52     2.110    
  1041.07     2.720    
  1044.61     3.325    
  1048.16     3.465    
  1051.70     2.987    
  1055.25     2.328    
  1058.80     1.800    
  1062.34     1.439    
  1065.89     1.199    
  1069.43     1.037    
  1072.98    0.9243    
  1076.53    0.8429    
  1080.07    0.7824    
  1083.62    0.7361    
  1087.16    0.6998    
  1090.71    0.6708    
  1094.26    0.6470    
  1097.80    0.6273    
  1101.35    0.6107    
  1104.89    0.5964    
  1108.44    0.5842    
  1111.99    0.5734    
  1115.53    0.5640    
  1119.08    0.5556    
  1122.62    0.5481    
  1126.17    0.5414    
  1129.72    0.5353    
  1133.26    0.5298    
  1136.81    0.5249    
  1140.35    0.5204    
  1143.90    0.5164    
  1147.45    0.5128    
  1150.99    0.5096    
  1154.54    0.5068    
  1158.08    0.5043    
  1161.63    0.5023    
  1165.17    0.5007    
  1168.72    0.4996    
  1172.27    0.4991    
  1175.81    0.4991    
  1179.36    0.4998    
  1182.90    0.5015    
  1186.45    0.5043    
  1190.00    0.5085    
  1193.54    0.5146    
  1197.09    0.5234    
  1200.63    0.5358    
  1204.18    0.5536    
  1207.73    0.5795    
  1211.27    0.6180    
  1214.82    0.6761    
  1218.36    0.7651    
  1221.91    0.8970    
  1225.46     1.064    
  1229.00     1.189    
  1232.55     1.157    
  1236.09     1.000    
  1239.64    0.8389    
  1243.19    0.7206    
  1246.73    0.6416    
  1250.28    0.5890    
  1253.82    0.5532    
  1257.37    0.5281    
  1260.92    0.5099    
  1264.46    0.4964    
  1268.01    0.4862    
  1271.55    0.4783    
  1275.10    0.4721    
  1278.65    0.4672    
  1282.19    0.4633    
  1285.74    0.4603    
  1289.28    0.4578    
  1292.83    0.4559    
  1296.38    0.4545    
  1299.92    0.4535    
  1303.47    0.4529    
  1307.01    0.4527    
  1310.56    0.4528    
  1314.11    0.4532    
  1317.65    0.4540    
  1321.20    0.4552    
  1324.74    0.4567    
  1328.29    0.4587    
  1331.84    0.4612    
  1335.38    0.4643    
  1338.93    0.4680    
  1342.47    0.4726    
  1346.02    0.4781    
  1349.57    0.4848    
  1353.11    0.4931    
  1356.66    0.5033    
  1360.20    0.5161    
  1363.75    0.5325    
  1367.30    0.5536    
  1370.84    0.5816    
  1374.39    0.6195    
  1377.93    0.6723    
  1381.48    0.7481    
  1385.03    0.8604    
  1388.57     1.030    
  1392.12     1.282    
  1395.66     1.614    
  1399.21     1.901    
  1402.76     1.901    
  1406.30     1.615    
  1409.85     1.286    
  1413.39     1.037    
  1416.94    0.8702    
  1420.49    0.7607    
  1424.03    0.6874    
  1427.58    0.6372    
  1431.12    0.6018    
  1434.67    0.5763    
  1438.22    0.5577    
  1441.76    0.5439    
  1445.31    0.5336    
  1448.85    0.5259    
  1452.40    0.5202    
  1455.95    0.5160    
  1459.49    0.5131    
  1463.04    0.5112    
  1466.58    0.5101    
  1470.13    0.5096    
  1473.68    0.5098    
  1477.22    0.5105    
  1480.77    0.5117    
  1484.31    0.5133    
  1487.86    0.5153    
  1491.41    0.5177    
  1494.95    0.5205    
  1498.50    0.5237    
  1502.04    0.5274    
  1505.59    0.5315    
  1509.14    0.5361    
  1512.68    0.5414    
  1516.23    0.5475    
  1519.77    0.5547    
  1523.32    0.5634    
  1526.87    0.5743    
  1530.41    0.5884    
  1533.96    0.6076    
  1537.50    0.6346    
  1541.05    0.6721    
  1544.60    0.7176    
  1548.14    0.7509    
  1551.69    0.7457    
  1555.23    0.7131    
  1558.78    0.6814    
  1562.33    0.6603    
  1565.87    0.6486    
  1569.42    0.6432    
  1572.96    0.6419    
  1576.51    0.6432    
  1580.06    0.6464    
  1583.60    0.6510    
  1587.15    0.6565    
  1590.69    0.6628    
  1594.24    0.6698    
  1597.79    0.6774    
  1601.33    0.6855    
  1604.88    0.6941    
  1608.42    0.7031    
  1611.97    0.7126    
  1615.52    0.7225    
  1619.06    0.7329    
  1622.61    0.7437    
  1626.15    0.7550    
  1629.70    0.7667    
  1633.25    0.7789    
  1636.79    0.7916    
  1640.34    0.8047    
  1643.88    0.8185    
  1647.43    0.8327    
  1650.98    0.8475    
  1654.52    0.8629    
  1658.07    0.8790    
  1661.61    0.8956    
  1665.16    0.9130    
  1668.71    0.9310    
  1672.25    0.9498    
  1675.80    0.9694    
  1679.34    0.9898    
  1682.89     1.011    
  1686.44     1.033    
  1689.98     1.056    
  1693.53     1.080    
  1697.07     1.106    
  1700.62     1.132    
  1704.17     1.159    
  1707.71     1.188    
  1711.26     1.218    
  1714.80     1.250    
  1718.35     1.283    
  1721.90     1.317    
  1725.44     1.354    
  1728.99     1.392    
  1732.53     1.432    
  1736.08     1.474    
  1739.63     1.518    
  1743.17     1.565    
  1746.72     1.614    
  1750.26     1.666    
  1753.81     1.721    
  1757.36     1.778    
  1760.90     1.840    
  1764.45     1.904    
  1767.99     1.973    
  1771.54     2.046    
  1775.09     2.123    
  1778.63     2.206    
  1782.18     2.293    
  1785.72     2.387    
  1789.27     2.487    
  1792.82     2.594    
  1796.36     2.708    
  1799.91     2.831    
  1803.45     2.963    
  1807.00     3.105    
  1810.55     3.258    
  1814.09     3.424    
  1817.64     3.603    
  1821.18     3.798    
  1824.73     4.010    
  1828.28     4.240    
  1831.82     4.492    
  1835.37     4.769    
  1838.91     5.072    
  1842.46     5.407    
  1846.00     5.777    
  1849.55     6.188    
  1853.10     6.646    
  1856.64     7.158    
  1860.19     7.733    
  1863.73     8.382    
  1867.28     9.118    
  1870.83     9.957    
  1874.37     10.92    
  1877.92     12.03    
  1881.46     13.32    
  1885.01     14.84    
  1888.56     16.63    
  1892.10     18.76    
  1895.65     21.34    
  1899.19     24.48    
  1902.74     28.36    
  1906.29     33.24    
  1909.83     39.47    
  1913.38     47.59    
  1916.92     58.40    
  1920.47     73.18    
  1924.02     93.96    
  1927.56     124.1    
  1931.11     168.9    
  1934.65     236.8    
  1938.20     336.4    
  1941.75     460.4    
  1945.29     548.8    
  1948.84     521.0    
  1952.38     408.8    
  1955.93     298.4    
  1959.48     219.9    
  1963.02     166.2    
  1966.57     126.2    
  1970.11     96.20    
  1973.66     74.59    
  1977.21     59.18    
  1980.75     48.01    
  1984.30     39.73    
  1987.84     33.43    
  1991.39     28.56    
  1994.94     24.72    
  1998.48     21.66    
  2002.03     19.21    
  2005.57     17.24    
  2009.12     15.65    
  2012.67     14.28    
  2016.21     12.98    
  2019.76     11.77    
  2023.30     10.73    
  2026.85     9.865    
  2030.40     9.145    
  2033.94     8.550    
  2037.49     8.062    
  2041.03     7.677    
  2044.58     7.393    
  2048.13     7.223    
  2051.67     7.191    
  2055.22     7.347    
  2058.76     7.768    
  2062.31     8.556    
  2065.86     9.705    
  2069.40     10.73    
  2072.95     10.67    
  2076.49     9.486    
  2080.04     8.153    
  2083.59     7.200    
  2087.13     6.664    
  2090.68     6.477    
  2094.22     6.612    
  2097.77     7.106    
  2101.32     8.066    
  2104.86     9.615    
  2108.41     11.60    
  2111.95     12.98    
  2115.50     12.43    
  2119.05     10.54    
  2122.59     8.749    
  2126.14     7.558    
  2129.68     6.912    
  2133.23     6.652    
  2136.78     6.601    
  2140.32     6.627    
  2143.87     6.767    
  2147.41     7.123    
  2150.96     7.760    
  2154.51     8.743    
  2158.05     10.19    
  2161.60     12.29    
  2165.14     15.38    
  2168.69     20.00    
  2172.24     26.98    
  2175.78     37.28    
  2179.33     50.67    
  2182.87     63.23    
  2186.42     67.80    
  2189.97     60.27    
  2193.51     46.18    
  2197.06     33.51    
  2200.60     24.64    
  2204.15     18.76    
  2207.70     14.62    
  2211.24     11.53    
  2214.79     9.239    
  2218.33     7.569    
  2221.88     6.334    
  2225.43     5.402    
  2228.97     4.680    
  2232.52     4.111    
  2236.06     3.652    
  2239.61     3.277    
  2243.16     2.966    
  2246.70     2.705    
  2250.25     2.483    
  2253.79     2.293    
  2257.34     2.128    
  2260.89     1.984    
  2264.43     1.857    
  2267.98     1.745    
  2271.52     1.646    
  2275.07     1.556    
  2278.62     1.476    
  2282.16     1.403    
  2285.71     1.337    
  2289.25     1.277    
  2292.80     1.222    
  2296.35     1.171    
  2299.89     1.125    
  2303.44     1.082    
  2306.98     1.042    
  2310.53     1.005    
  2314.08    0.9699    
  2317.62    0.9375    
  2321.17    0.9072    
  2324.71    0.8787    
  2328.26    0.8520    
  2331.81    0.8268    
  2335.35    0.8030    
  2338.90    0.7806    
  2342.44    0.7593    
  2345.99    0.7392    
  2349.54    0.7200    
  2353.08    0.7018    
  2356.63    0.6845    
  2360.17    0.6680    
  2363.72    0.6523    
  2367.27    0.6372    
  2370.81    0.6228    
  2374.36    0.6091    
  2377.90    0.5959    
  2381.45    0.5832    
  2385.00    0.5711    
  2388.54    0.5594    
  2392.09    0.5482    
  2395.63    0.5374    
  2399.18    0.5270    
  2402.73    0.5170    
  2406.27    0.5073    
  2409.82    0.4980    
  2413.36    0.4890    
  2416.91    0.4803    
  2420.46    0.4719    
  2424.00    0.4638    
  2427.55    0.4560    
  2431.09    0.4483    
  2434.64    0.4410    
  2438.19    0.4338    
  2441.73    0.4269    
  2445.28    0.4202    
  2448.82    0.4136    
  2452.37    0.4073    
  2455.92    0.4011    
  2459.46    0.3952    
  2463.01    0.3893    
  2466.55    0.3837    
  2470.10    0.3782    
  2473.65    0.3728    
  2477.19    0.3676    
  2480.74    0.3625    
  2484.28    0.3576    
  2487.83    0.3528    
  2491.38    0.3481    
  2494.92    0.3435    
  2498.47    0.3390    
  2502.01    0.3346    
  2505.56    0.3304    
  2509.10    0.3262    
  2512.65    0.3222    
  2516.20    0.3182    
  2519.74    0.3143    
  2523.29    0.3105    
  2526.83    0.3068    
  2530.38    0.3032    
  2533.93    0.2997    
  2537.47    0.2962    
  2541.02    0.2928    
  2544.56    0.2895    
  2548.11    0.2863    
  2551.66    0.2831    
  2555.20    0.2800    
  2558.75    0.2770    
  2562.29    0.2740    
  2565.84    0.2711    
  2569.39    0.2682    
  2572.93    0.2654    
  2576.48    0.2626    
  2580.02    0.2599    
  2583.57    0.2573    
  2587.12    0.2547    
  2590.66    0.2521    
