
 ------------------------------------------------------------
     normal          Raman Scattering Plot
 ------------------------------------------------------------
 Excitation wavelength  514.50 nm
 Convolution lineshape is lorentzian  
 FWHM   20.00  1/cm
 ------------------------------------------------------------
 ------------------------------------------------------------
 # of frequencies :    60
 ------------------------------------------------------------
 #  freq [ 1/cm]  S [Ang**4/amu]
 ------------------------------------------------------------
   1    26.21   230145.2749
   2    43.10      347.4860
   3    43.12     1013.9986
   4    68.92    23515.0676
   5    69.07     4723.0534
   6   102.22     1739.1196
   7   102.22      122.3702
   8   138.34      649.1133
   9   142.77    37698.9268
  10   189.17    42781.7697
  11   189.18       74.6069
  12   200.99      472.9100
  13   205.94      388.5142
  14   239.31     7131.5429
  15   291.23      813.8110
  16   291.24     1252.6104
  17   311.21     4490.9923
  18   338.45    21841.7169
  19   380.02     5651.4962
  20   408.00    54442.8219
  21   408.00      213.7050
  22   439.86    71913.2361
  23   451.24     7733.5379
  24   492.93      171.5778
  25   492.93     5340.6022
  26   534.11     7105.3076
  27   535.06     5624.0229
  28   574.64       77.6347
  29   574.64     2464.2571
  30   586.74    34073.4839
  31   610.90    94521.1049
  32   611.41    16219.2347
  33   639.50       64.5200
  34   639.50      112.5402
  35   660.28    54937.0684
  36   678.82     3419.0676
  37   679.94    10417.1961
  38   679.95      702.4124
  39   703.35     7958.2433
  40   727.32      686.1147
  41   740.29    10330.7908
  42   740.30      305.1257
  43   757.31    42388.7693
  44   930.72     3516.0117
  45  1108.85   465391.5245
  46  1271.96     6333.8792
  47  1417.72   107370.8933
  48  1543.61    10291.4563
  49  1885.48  1653487.9205
  50  1939.30    39608.4137
  51  1986.21    12327.4458
  52  2034.59     8826.2423
  53  2060.00    36102.3570
  54  2091.51   536730.2674
  55  2140.72    28204.5561
  56  2144.11   289215.6092
  57  2169.41   157500.5023
  58  2175.12   403642.8940
  59  3425.60   119282.2947
  60  3428.43   686729.3375
 ------------------------------------------------------------
   -30.26     6015.    
   -26.73     6811.    
   -23.21     7774.    
   -19.68     8953.    
   -16.16    0.1042E+05
   -12.63    0.1227E+05
    -9.11    0.1464E+05
    -5.58    0.1774E+05
    -2.05    0.2191E+05
     1.47    0.2765E+05
     5.00    0.3577E+05
     8.52    0.4762E+05
    12.05    0.6538E+05
    15.57    0.9215E+05
    19.10    0.1304E+06
    22.63    0.1740E+06
    26.15    0.1964E+06
    29.68    0.1755E+06
    33.20    0.1322E+06
    36.73    0.9378E+05
    40.25    0.6682E+05
    43.78    0.4897E+05
    47.31    0.3705E+05
    50.83    0.2896E+05
    54.36    0.2342E+05
    57.88    0.1966E+05
    61.41    0.1721E+05
    64.93    0.1565E+05
    68.46    0.1430E+05
    71.99    0.1251E+05
    75.51    0.1050E+05
    79.04     8762.    
    82.56     7419.    
    86.09     6396.    
    89.61     5607.    
    93.14     4988.    
    96.67     4495.    
   100.19     4090.    
   103.72     3734.    
   107.24     3412.    
   110.77     3133.    
   114.30     2904.    
   117.82     2721.    
   121.35     2585.    
   124.87     2500.    
   128.40     2475.    
   131.92     2531.    
   135.45     2682.    
   138.98     2884.    
   142.50     2958.    
   146.03     2739.    
   149.55     2360.    
   153.08     2018.    
   156.60     1768.    
   160.13     1593.    
   163.66     1475.    
   167.18     1399.    
   170.71     1361.    
   174.23     1365.    
   177.76     1421.    
   181.28     1541.    
   184.81     1709.    
   188.34     1813.    
   191.86     1716.    
   195.39     1477.    
   198.91     1246.    
   202.44     1071.    
   205.96     944.7    
   209.49     851.7    
   213.02     781.6    
   216.54     728.3    
   220.07     687.6    
   223.59     657.4    
   227.12     637.1    
   230.64     627.0    
   234.17     625.8    
   237.70     623.3    
   241.22     601.6    
   244.75     561.6    
   248.27     520.4    
   251.80     486.5    
   255.32     459.7    
   258.85     438.2    
   262.38     420.3    
   265.90     405.2    
   269.43     392.2    
   272.95     381.3    
   276.48     372.2    
   280.00     365.4    
   283.53     361.1    
   287.06     358.9    
   290.58     356.2    
   294.11     350.1    
   297.63     343.0    
   301.16     339.3    
   304.69     340.7    
   308.21     345.0    
   311.74     345.5    
   315.26     338.7    
   318.79     331.5    
   322.31     331.1    
   325.84     341.2    
   329.37     364.3    
   332.89     399.9    
   336.42     432.9    
   339.94     431.5    
   343.47     391.6    
   346.99     344.2    
   350.52     307.6    
   354.05     282.8    
   357.57     266.8    
   361.10     257.2    
   364.62     252.7    
   368.15     252.9    
   371.67     258.1    
   375.20     267.9    
   378.73     278.3    
   382.25     283.5    
   385.78     286.0    
   389.30     295.2    
   392.83     317.5    
   396.35     358.7    
   399.88     424.0    
   403.41     508.6    
   406.93     572.8    
   410.46     560.5    
   413.98     490.7    
   417.51     424.3    
   421.03     387.3    
   424.56     382.1    
   428.09     408.9    
   431.61     470.3    
   435.14     559.2    
   438.66     628.9    
   442.19     611.0    
   445.71     522.4    
   449.24     430.0    
   452.77     355.5    
   456.29     295.9    
   459.82     250.9    
   463.34     219.0    
   466.87     196.6    
   470.39     180.8    
   473.92     169.8    
   477.45     162.3    
   480.97     158.1    
   484.50     157.0    
   488.02     158.5    
   491.55     159.6    
   495.07     155.5    
   498.60     146.9    
   502.13     138.5    
   505.65     132.5    
   509.18     128.8    
   512.70     127.1    
   516.23     127.5    
   519.76     130.2    
   523.28     136.1    
   526.81     146.0    
   530.33     158.6    
   533.86     166.7    
   537.38     162.1    
   540.91     149.3    
   544.44     137.4    
   547.96     129.6    
   551.49     125.6    
   555.01     124.7    
   558.54     126.5    
   562.06     131.2    
   565.59     139.3    
   569.12     151.9    
   572.64     170.0    
   576.17     194.2    
   579.69     226.7    
   583.22     265.2    
   586.74     292.0    
   590.27     293.4    
   593.80     288.3    
   597.32     301.8    
   600.85     345.8    
   604.37     422.7    
   607.90     510.6    
   611.42     542.2    
   614.95     478.3    
   618.48     376.2    
   622.00     290.9    
   625.53     232.8    
   629.05     195.6    
   632.58     172.9    
   636.10     160.2    
   639.63     155.6    
   643.16     158.7    
   646.68     170.8    
   650.21     194.6    
   653.73     231.8    
   657.26     273.1    
   660.78     288.9    
   664.31     262.8    
   667.84     221.8    
   671.36     191.4    
   674.89     175.5    
   678.41     166.2    
   681.94     152.8    
   685.46     135.0    
   688.99     120.0    
   692.52     110.6    
   696.04     106.8    
   699.57     106.5    
   703.09     105.5    
   706.62     99.95    
   710.14     92.27    
   713.67     86.14    
   717.20     82.67    
   720.72     81.74    
   724.25     83.15    
   727.77     86.85    
   731.30     93.26    
   734.83     103.0    
   738.35     114.4    
   741.88     123.3    
   745.40     131.1    
   748.93     145.1    
   752.45     167.2    
   755.98     184.9    
   759.51     177.8    
   763.03     149.2    
   766.56     119.4    
   770.08     97.14    
   773.61     81.99    
   777.13     71.70    
   780.66     64.51    
   784.19     59.32    
   787.71     55.43    
   791.24     52.43    
   794.76     50.04    
   798.29     48.09    
   801.81     46.47    
   805.34     45.09    
   808.87     43.90    
   812.39     42.85    
   815.92     41.93    
   819.44     41.10    
   822.97     40.35    
   826.49     39.66    
   830.02     39.03    
   833.55     38.45    
   837.07     37.91    
   840.60     37.40    
   844.12     36.93    
   847.65     36.48    
   851.17     36.06    
   854.70     35.66    
   858.23     35.29    
   861.75     34.93    
   865.28     34.60    
   868.80     34.28    
   872.33     33.99    
   875.85     33.71    
   879.38     33.45    
   882.91     33.21    
   886.43     32.99    
   889.96     32.80    
   893.48     32.64    
   897.01     32.51    
   900.53     32.44    
   904.06     32.42    
   907.59     32.50    
   911.11     32.71    
   914.64     33.12    
   918.16     33.86    
   921.69     35.04    
   925.22     36.69    
   928.74     38.17    
   932.27     38.16    
   935.79     36.52    
   939.32     34.58    
   942.84     33.06    
   946.37     32.01    
   949.90     31.30    
   953.42     30.82    
   956.95     30.48    
   960.47     30.23    
   964.00     30.07    
   967.52     29.95    
   971.05     29.89    
   974.58     29.86    
   978.10     29.88    
   981.63     29.93    
   985.15     30.01    
   988.68     30.13    
   992.20     30.29    
   995.73     30.49    
   999.26     30.74    
  1002.78     31.03    
  1006.31     31.39    
  1009.83     31.80    
  1013.36     32.28    
  1016.88     32.85    
  1020.41     33.51    
  1023.94     34.27    
  1027.46     35.16    
  1030.99     36.19    
  1034.51     37.40    
  1038.04     38.81    
  1041.56     40.48    
  1045.09     42.44    
  1048.62     44.78    
  1052.14     47.58    
  1055.67     50.96    
  1059.19     55.09    
  1062.72     60.17    
  1066.24     66.51    
  1069.77     74.54    
  1073.30     84.89    
  1076.82     98.47    
  1080.35     116.7    
  1083.87     141.8    
  1087.40     177.4    
  1090.92     229.3    
  1094.45     307.0    
  1097.98     424.3    
  1101.50     593.2    
  1105.03     790.4    
  1108.55     902.4    
  1112.08     819.7    
  1115.60     626.1    
  1119.13     448.6    
  1122.66     322.8    
  1126.18     239.2    
  1129.71     183.5    
  1133.23     145.4    
  1136.76     118.6    
  1140.29     99.10    
  1143.81     84.61    
  1147.34     73.55    
  1150.86     64.94    
  1154.39     58.11    
  1157.91     52.60    
  1161.44     48.10    
  1164.97     44.36    
  1168.49     41.24    
  1172.02     38.59    
  1175.54     36.33    
  1179.07     34.38    
  1182.59     32.69    
  1186.12     31.21    
  1189.65     29.91    
  1193.17     28.76    
  1196.70     27.74    
  1200.22     26.83    
  1203.75     26.01    
  1207.27     25.28    
  1210.80     24.62    
  1214.33     24.03    
  1217.85     23.50    
  1221.38     23.02    
  1224.90     22.59    
  1228.43     22.22    
  1231.95     21.89    
  1235.48     21.62    
  1239.01     21.41    
  1242.53     21.28    
  1246.06     21.23    
  1249.58     21.32    
  1253.11     21.59    
  1256.63     22.13    
  1260.16     23.10    
  1263.69     24.65    
  1267.21     26.69    
  1270.74     28.21    
  1274.26     27.67    
  1277.79     25.45    
  1281.31     23.15    
  1284.84     21.41    
  1288.37     20.22    
  1291.89     19.39    
  1295.42     18.80    
  1298.94     18.36    
  1302.47     18.04    
  1305.99     17.78    
  1309.52     17.58    
  1313.05     17.42    
  1316.57     17.30    
  1320.10     17.21    
  1323.62     17.15    
  1327.15     17.11    
  1330.68     17.10    
  1334.20     17.12    
  1337.73     17.17    
  1341.25     17.25    
  1344.78     17.37    
  1348.30     17.53    
  1351.83     17.74    
  1355.36     18.01    
  1358.88     18.35    
  1362.41     18.78    
  1365.93     19.32    
  1369.46     20.00    
  1372.98     20.87    
  1376.51     21.97    
  1380.04     23.39    
  1383.56     25.26    
  1387.09     27.76    
  1390.61     31.17    
  1394.14     35.94    
  1397.66     42.79    
  1401.19     52.94    
  1404.72     68.26    
  1408.24     91.24    
  1411.77     122.6    
  1415.29     153.1    
  1418.82     159.6    
  1422.34     135.2    
  1425.87     102.0    
  1429.40     75.52    
  1432.92     57.47    
  1436.45     45.50    
  1439.97     37.45    
  1443.50     31.87    
  1447.02     27.89    
  1450.55     24.97    
  1454.08     22.76    
  1457.60     21.06    
  1461.13     19.73    
  1464.65     18.66    
  1468.18     17.79    
  1471.70     17.08    
  1475.23     16.50    
  1478.76     16.00    
  1482.28     15.59    
  1485.81     15.25    
  1489.33     14.96    
  1492.86     14.73    
  1496.38     14.54    
  1499.91     14.39    
  1503.44     14.29    
  1506.96     14.25    
  1510.49     14.26    
  1514.01     14.35    
  1517.54     14.54    
  1521.06     14.87    
  1524.59     15.42    
  1528.12     16.30    
  1531.64     17.69    
  1535.17     19.79    
  1538.69     22.52    
  1542.22     24.68    
  1545.75     24.30    
  1549.27     21.70    
  1552.80     18.91    
  1556.32     16.82    
  1559.85     15.41    
  1563.37     14.46    
  1566.90     13.80    
  1570.43     13.34    
  1573.95     13.00    
  1577.48     12.74    
  1581.00     12.54    
  1584.53     12.39    
  1588.05     12.26    
  1591.58     12.16    
  1595.11     12.08    
  1598.63     12.01    
  1602.16     11.96    
  1605.68     11.92    
  1609.21     11.88    
  1612.73     11.86    
  1616.26     11.84    
  1619.79     11.83    
  1623.31     11.82    
  1626.84     11.82    
  1630.36     11.83    
  1633.89     11.84    
  1637.41     11.85    
  1640.94     11.87    
  1644.47     11.90    
  1647.99     11.93    
  1651.52     11.97    
  1655.04     12.01    
  1658.57     12.06    
  1662.09     12.11    
  1665.62     12.17    
  1669.15     12.24    
  1672.67     12.31    
  1676.20     12.39    
  1679.72     12.48    
  1683.25     12.57    
  1686.77     12.67    
  1690.30     12.78    
  1693.83     12.90    
  1697.35     13.03    
  1700.88     13.17    
  1704.40     13.32    
  1707.93     13.48    
  1711.45     13.65    
  1714.98     13.83    
  1718.51     14.04    
  1722.03     14.25    
  1725.56     14.48    
  1729.08     14.74    
  1732.61     15.01    
  1736.14     15.30    
  1739.66     15.62    
  1743.19     15.96    
  1746.71     16.33    
  1750.24     16.74    
  1753.76     17.18    
  1757.29     17.65    
  1760.82     18.17    
  1764.34     18.74    
  1767.87     19.36    
  1771.39     20.05    
  1774.92     20.80    
  1778.44     21.62    
  1781.97     22.53    
  1785.50     23.55    
  1789.02     24.67    
  1792.55     25.93    
  1796.07     27.33    
  1799.60     28.92    
  1803.12     30.70    
  1806.65     32.73    
  1810.18     35.05    
  1813.70     37.70    
  1817.23     40.77    
  1820.75     44.34    
  1824.28     48.52    
  1827.80     53.46    
  1831.33     59.35    
  1834.86     66.46    
  1838.38     75.12    
  1841.91     85.83    
  1845.43     99.26    
  1848.96     116.4    
  1852.48     138.7    
  1856.01     168.3    
  1859.54     208.8    
  1863.06     265.4    
  1866.59     347.3    
  1870.11     469.1    
  1873.64     652.9    
  1877.16     923.5    
  1880.69     1267.    
  1884.22     1532.    
  1887.74     1481.    
  1891.27     1169.    
  1894.79     838.5    
  1898.32     594.6    
  1901.84     431.5    
  1905.37     323.6    
  1908.90     250.8    
  1912.42     200.5    
  1915.95     164.9    
  1919.47     139.5    
  1923.00     121.5    
  1926.52     109.5    
  1930.05     102.7    
  1933.58     100.5    
  1937.10     99.62    
  1940.63     94.12    
  1944.15     82.59    
  1947.68     70.26    
  1951.21     60.38    
  1954.73     53.13    
  1958.26     47.84    
  1961.78     43.95    
  1965.31     41.11    
  1968.83     39.15    
  1972.36     38.02    
  1975.89     37.79    
  1979.41     38.49    
  1982.94     39.67    
  1986.46     39.76    
  1989.99     37.69    
  1993.51     34.75    
  1997.04     32.32    
  2000.57     30.69    
  2004.09     29.73    
  2007.62     29.27    
  2011.14     29.25    
  2014.67     29.63    
  2018.19     30.46    
  2021.72     31.82    
  2025.25     33.87    
  2028.77     36.69    
  2032.30     39.86    
  2035.82     42.35    
  2039.35     44.07    
  2042.87     46.46    
  2046.40     50.71    
  2049.93     57.55    
  2053.45     67.37    
  2056.98     79.07    
  2060.50     88.70    
  2064.03     94.52    
  2067.55     101.7    
  2071.08     115.8    
  2074.61     140.9    
  2078.13     181.8    
  2081.66     245.1    
  2085.18     334.1    
  2088.71     426.5    
  2092.23     456.4    
  2095.76     393.9    
  2099.29     299.0    
  2102.81     221.9    
  2106.34     170.4    
  2109.86     138.3    
  2113.39     119.4    
  2116.91     109.8    
  2120.44     107.8    
  2123.97     112.9    
  2127.49     126.3    
  2131.02     150.7    
  2134.54     189.8    
  2138.07     243.6    
  2141.60     295.7    
  2145.12     310.4    
  2148.65     280.5    
  2152.17     243.2    
  2155.70     225.8    
  2159.22     235.3    
  2162.75     273.4    
  2166.28     336.5    
  2169.80     404.2    
  2173.33     439.2    
  2176.85     407.7    
  2180.38     323.5    
  2183.90     237.5    
  2187.43     173.4    
  2190.96     129.9    
  2194.48     100.6    
  2198.01     80.38    
  2201.53     65.98    
  2205.06     55.43    
  2208.58     47.47    
  2212.11     41.33    
  2215.64     36.48    
  2219.16     32.58    
  2222.69     29.40    
  2226.21     26.76    
  2229.74     24.55    
  2233.26     22.67    
  2236.79     21.06    
  2240.32     19.67    
  2243.84     18.46    
  2247.37     17.39    
  2250.89     16.45    
  2254.42     15.61    
  2257.94     14.87    
  2261.47     14.19    
  2265.00     13.59    
  2268.52     13.04    
  2272.05     12.54    
  2275.57     12.08    
  2279.10     11.66    
  2282.62     11.28    
  2286.15     10.92    
  2289.68     10.60    
  2293.20     10.29    
  2296.73     10.01    
  2300.25     9.743    
  2303.78     9.496    
  2307.30     9.265    
  2310.83     9.049    
  2314.36     8.845    
  2317.88     8.653    
  2321.41     8.472    
  2324.93     8.302    
  2328.46     8.140    
  2331.98     7.987    
  2335.51     7.842    
  2339.04     7.703    
  2342.56     7.572    
  2346.09     7.447    
  2349.61     7.327    
  2353.14     7.213    
  2356.67     7.104    
  2360.19     7.000    
  2363.72     6.900    
  2367.24     6.804    
  2370.77     6.712    
  2374.29     6.623    
  2377.82     6.538    
  2381.35     6.457    
  2384.87     6.378    
  2388.40     6.302    
  2391.92     6.228    
  2395.45     6.157    
  2398.97     6.089    
  2402.50     6.023    
  2406.03     5.959    
  2409.55     5.897    
  2413.08     5.837    
  2416.60     5.778    
  2420.13     5.722    
  2423.65     5.667    
  2427.18     5.614    
  2430.71     5.562    
  2434.23     5.512    
  2437.76     5.463    
  2441.28     5.415    
  2444.81     5.369    
  2448.33     5.324    
  2451.86     5.280    
  2455.39     5.237    
  2458.91     5.195    
  2462.44     5.154    
  2465.96     5.114    
  2469.49     5.075    
  2473.01     5.037    
  2476.54     5.000    
  2480.07     4.964    
  2483.59     4.928    
  2487.12     4.894    
  2490.64     4.859    
  2494.17     4.826    
  2497.69     4.793    
  2501.22     4.761    
  2504.75     4.730    
  2508.27     4.699    
  2511.80     4.669    
  2515.32     4.640    
  2518.85     4.611    
  2522.37     4.582    
  2525.90     4.554    
  2529.43     4.527    
  2532.95     4.500    
  2536.48     4.474    
  2540.00     4.447    
  2543.53     4.422    
  2547.06     4.397    
  2550.58     4.372    
  2554.11     4.348    
  2557.63     4.324    
  2561.16     4.300    
  2564.68     4.277    
