
 ------------------------------------------------------------
     normal          Raman Scattering Plot
 ------------------------------------------------------------
 Excitation wavelength  514.50 nm
 Convolution lineshape is lorentzian  
 FWHM   20.00  1/cm
 ------------------------------------------------------------
 ------------------------------------------------------------
 # of frequencies :    72
 ------------------------------------------------------------
 #  freq [ 1/cm]  S [Ang**4/amu]
 ------------------------------------------------------------
   2     6.43   479514.2216
   3    17.41    19363.7737
   4    33.06   956769.7034
   5    35.26    18557.2058
   6    59.69   167796.2389
   7    59.97    51382.6259
   8    89.41    87791.8045
   9    89.71     3430.5850
  10   124.11   168707.3899
  11   124.34    89079.8773
  12   158.42    88123.9298
  13   162.65   152139.3346
  14   162.69    36532.2749
  15   203.94   118620.2126
  16   204.00    83012.5581
  17   246.86     6016.8809
  18   246.86    39317.9779
  19   290.05    67830.5048
  20   290.06    41611.6999
  21   322.54    12209.8021
  22   328.97  1489406.0984
  23   329.18     2711.7882
  24   391.18    20851.9939
  25   391.20   240830.9805
  26   428.41    53310.7366
  27   428.43  3595782.2073
  28   464.16    12088.5164
  29   464.19   760352.0718
  30   486.96   135062.2400
  31   499.25   648578.9927
  32   499.30    23824.7776
  33   534.53     6501.7791
  34   534.57   293371.1080
  35   569.40   201694.6294
  36   569.49   296026.9743
  37   602.56   235551.4195
  38   602.59     4968.9528
  39   631.00   124872.0598
  40   631.05    23640.8753
  41   645.36    22510.1555
  42   654.09   246056.5627
  43   654.18   164001.0370
  44   671.79    82921.3589
  45   671.91    94801.0587
  46   690.31   373882.7204
  47   690.31   199607.2943
  48   718.41    43915.0613
  49   718.45   265346.4907
  50   760.00    11513.2047
  51   760.08    16923.4627
  52   805.08    87275.0976
  53   954.82   108044.1106
  54  1100.12    20136.1006
  55  1237.82     1112.5587
  56  1367.69    93601.1005
  57  1485.45    16423.1432
  58  1589.26    19887.9887
  59  1846.27 19390695.5550
  60  1944.86   160930.2646
  61  1989.65   210475.9176
  62  2024.75    21142.0693
  63  2036.81    81407.3925
  64  2084.18   749378.3178
  65  2126.96 16764049.5104
  66  2129.98  4841041.5421
  67  2168.64   196711.4063
  68  2180.09   184692.3486
  69  2191.18   330639.9575
  70  2198.34  2717491.2776
  71  3428.91   138342.2449
  72  3432.83  2985895.5104
 ------------------------------------------------------------
   -56.44    0.1682E+06
   -52.89    0.1881E+06
   -49.33    0.2118E+06
   -45.77    0.2401E+06
   -42.22    0.2746E+06
   -38.66    0.3169E+06
   -35.11    0.3696E+06
   -31.55    0.4365E+06
   -27.99    0.5228E+06
   -24.44    0.6366E+06
   -20.88    0.7903E+06
   -17.32    0.1004E+07
   -13.77    0.1309E+07
   -10.21    0.1759E+07
    -6.65    0.2439E+07
    -3.10    0.3458E+07
     0.46    0.4855E+07
     4.01    0.6221E+07
     7.57    0.6516E+07
    11.13    0.5450E+07
    14.68    0.4027E+07
    18.24    0.2921E+07
    21.80    0.2202E+07
    25.35    0.1777E+07
    28.91    0.1545E+07
    32.47    0.1379E+07
    36.02    0.1168E+07
    39.58    0.9296E+06
    43.14    0.7289E+06
    46.69    0.5827E+06
    50.25    0.4806E+06
    53.80    0.4097E+06
    57.36    0.3581E+06
    60.92    0.3138E+06
    64.47    0.2711E+06
    68.03    0.2334E+06
    71.59    0.2029E+06
    75.14    0.1790E+06
    78.70    0.1602E+06
    82.26    0.1454E+06
    85.81    0.1335E+06
    89.37    0.1229E+06
    92.92    0.1122E+06
    96.48    0.1021E+06
   100.04    0.9341E+05
   103.59    0.8621E+05
   107.15    0.8039E+05
   110.71    0.7585E+05
   114.26    0.7262E+05
   117.82    0.7067E+05
   121.38    0.6930E+05
   124.93    0.6660E+05
   128.49    0.6166E+05
   132.04    0.5616E+05
   135.60    0.5149E+05
   139.16    0.4783E+05
   142.71    0.4504E+05
   146.27    0.4300E+05
   149.83    0.4167E+05
   153.38    0.4106E+05
   156.94    0.4086E+05
   160.50    0.4023E+05
   164.05    0.3831E+05
   167.61    0.3536E+05
   171.17    0.3243E+05
   174.72    0.3005E+05
   178.28    0.2818E+05
   181.83    0.2672E+05
   185.39    0.2557E+05
   188.95    0.2472E+05
   192.50    0.2416E+05
   196.06    0.2394E+05
   199.62    0.2398E+05
   203.17    0.2379E+05
   206.73    0.2279E+05
   210.29    0.2123E+05
   213.84    0.1975E+05
   217.40    0.1855E+05
   220.95    0.1759E+05
   224.51    0.1681E+05
   228.07    0.1616E+05
   231.62    0.1560E+05
   235.18    0.1514E+05
   238.74    0.1477E+05
   242.29    0.1446E+05
   245.85    0.1415E+05
   249.41    0.1373E+05
   252.96    0.1324E+05
   256.52    0.1277E+05
   260.07    0.1237E+05
   263.63    0.1203E+05
   267.19    0.1175E+05
   270.74    0.1153E+05
   274.30    0.1137E+05
   277.86    0.1129E+05
   281.41    0.1131E+05
   284.97    0.1143E+05
   288.53    0.1153E+05
   292.08    0.1143E+05
   295.64    0.1117E+05
   299.20    0.1095E+05
   302.75    0.1091E+05
   306.31    0.1110E+05
   309.86    0.1158E+05
   313.42    0.1246E+05
   316.98    0.1395E+05
   320.53    0.1625E+05
   324.09    0.1924E+05
   327.65    0.2154E+05
   331.20    0.2093E+05
   334.76    0.1789E+05
   338.32    0.1471E+05
   341.87    0.1234E+05
   345.43    0.1074E+05
   348.98     9655.    
   352.54     8907.    
   356.10     8378.    
   359.65     7999.    
   363.21     7731.    
   366.77     7553.    
   370.32     7459.    
   373.88     7453.    
   377.44     7554.    
   380.99     7794.    
   384.55     8197.    
   388.10     8686.    
   391.66     8983.    
   395.22     8941.    
   398.77     8850.    
   402.33     9003.    
   405.89     9527.    
   409.44    0.1053E+05
   413.00    0.1221E+05
   416.56    0.1490E+05
   420.11    0.1897E+05
   423.67    0.2421E+05
   427.23    0.2819E+05
   430.78    0.2726E+05
   434.34    0.2237E+05
   437.89    0.1734E+05
   441.45    0.1373E+05
   445.01    0.1144E+05
   448.56    0.1010E+05
   452.12     9479.    
   455.68     9455.    
   459.23     9888.    
   462.79    0.1028E+05
   466.35     9889.    
   469.90     8808.    
   473.46     7764.    
   477.01     7089.    
   480.57     6787.    
   484.13     6773.    
   487.68     6924.    
   491.24     7201.    
   494.80     7636.    
   498.35     7903.    
   501.91     7483.    
   505.47     6575.    
   509.02     5725.    
   512.58     5124.    
   516.13     4748.    
   519.69     4548.    
   523.25     4499.    
   526.80     4595.    
   530.36     4790.    
   533.92     4904.    
   537.47     4729.    
   541.03     4374.    
   544.59     4063.    
   548.14     3873.    
   551.70     3804.    
   555.26     3857.    
   558.81     4048.    
   562.37     4395.    
   565.92     4819.    
   569.48     5011.    
   573.04     4721.    
   576.59     4203.    
   580.15     3763.    
   583.71     3475.    
   587.26     3320.    
   590.82     3276.    
   594.38     3336.    
   597.93     3473.    
   601.49     3575.    
   605.04     3487.    
   608.60     3257.    
   612.16     3043.    
   615.71     2912.    
   619.27     2865.    
   622.83     2897.    
   626.38     2992.    
   629.94     3085.    
   633.50     3094.    
   637.05     3056.    
   640.61     3082.    
   644.16     3221.    
   647.72     3474.    
   651.28     3761.    
   654.83     3861.    
   658.39     3672.    
   661.95     3420.    
   665.50     3293.    
   669.06     3289.    
   672.62     3299.    
   676.17     3278.    
   679.73     3332.    
   683.29     3553.    
   686.84     3877.    
   690.40     4014.    
   693.95     3738.    
   697.51     3279.    
   701.07     2910.    
   704.62     2697.    
   708.18     2630.    
   711.74     2687.    
   715.29     2802.    
   718.85     2810.    
   722.41     2609.    
   725.96     2328.    
   729.52     2093.    
   733.07     1924.    
   736.63     1806.    
   740.19     1722.    
   743.74     1662.    
   747.30     1619.    
   750.86     1590.    
   754.41     1573.    
   757.97     1559.    
   761.53     1534.    
   765.08     1495.    
   768.64     1456.    
   772.19     1423.    
   775.75     1398.    
   779.31     1379.    
   782.86     1366.    
   786.42     1359.    
   789.98     1361.    
   793.53     1375.    
   797.09     1404.    
   800.65     1445.    
   804.20     1469.    
   807.76     1440.    
   811.31     1374.    
   814.87     1309.    
   818.43     1259.    
   821.98     1222.    
   825.54     1194.    
   829.10     1171.    
   832.65     1152.    
   836.21     1135.    
   839.77     1120.    
   843.32     1106.    
   846.88     1094.    
   850.44     1082.    
   853.99     1070.    
   857.55     1059.    
   861.10     1049.    
   864.66     1039.    
   868.22     1029.    
   871.77     1019.    
   875.33     1010.    
   878.89     1001.    
   882.44     992.6    
   886.00     984.2    
   889.56     976.0    
   893.11     968.1    
   896.67     960.4    
   900.22     953.1    
   903.78     946.1    
   907.34     939.4    
   910.89     933.3    
   914.45     927.6    
   918.01     922.7    
   921.56     918.7    
   925.12     916.0    
   928.68     915.1    
   932.23     917.0    
   935.79     922.9    
   939.34     935.3    
   942.90     957.8    
   946.46     994.5    
   950.01     1043.    
   953.57     1079.    
   957.13     1064.    
   960.68     1007.    
   964.24     947.3    
   967.80     902.1    
   971.35     869.9    
   974.91     846.7    
   978.47     829.0    
   982.02     815.0    
   985.58     803.3    
   989.13     793.2    
   992.69     784.2    
   996.25     776.1    
   999.80     768.5    
  1003.36     761.4    
  1006.92     754.7    
  1010.47     748.3    
  1014.03     742.1    
  1017.59     736.1    
  1021.14     730.3    
  1024.70     724.7    
  1028.25     719.2    
  1031.81     713.8    
  1035.37     708.5    
  1038.92     703.4    
  1042.48     698.4    
  1046.04     693.5    
  1049.59     688.7    
  1053.15     684.0    
  1056.71     679.4    
  1060.26     675.0    
  1063.82     670.7    
  1067.37     666.7    
  1070.93     662.8    
  1074.49     659.4    
  1078.04     656.4    
  1081.60     654.1    
  1085.16     653.0    
  1088.71     653.5    
  1092.27     656.4    
  1095.83     660.9    
  1099.38     662.6    
  1102.94     655.8    
  1106.50     643.4    
  1110.05     631.4    
  1113.61     621.7    
  1117.16     613.9    
  1120.72     607.5    
  1124.28     602.0    
  1127.83     597.0    
  1131.39     592.3    
  1134.95     588.0    
  1138.50     583.8    
  1142.06     579.8    
  1145.62     575.9    
  1149.17     572.1    
  1152.73     568.4    
  1156.28     564.7    
  1159.84     561.2    
  1163.40     557.6    
  1166.95     554.2    
  1170.51     550.7    
  1174.07     547.4    
  1177.62     544.0    
  1181.18     540.7    
  1184.74     537.5    
  1188.29     534.3    
  1191.85     531.1    
  1195.40     528.0    
  1198.96     524.9    
  1202.52     521.8    
  1206.07     518.8    
  1209.63     515.9    
  1213.19     512.9    
  1216.74     510.1    
  1220.30     507.3    
  1223.86     504.6    
  1227.41     502.0    
  1230.97     499.5    
  1234.53     497.2    
  1238.08     494.6    
  1241.64     491.6    
  1245.19     488.5    
  1248.75     485.5    
  1252.31     482.7    
  1255.86     479.9    
  1259.42     477.2    
  1262.98     474.6    
  1266.53     472.1    
  1270.09     469.6    
  1273.65     467.2    
  1277.20     464.7    
  1280.76     462.4    
  1284.31     460.1    
  1287.87     457.8    
  1291.43     455.6    
  1294.98     453.4    
  1298.54     451.3    
  1302.10     449.3    
  1305.65     447.3    
  1309.21     445.4    
  1312.77     443.6    
  1316.32     442.0    
  1319.88     440.5    
  1323.43     439.2    
  1326.99     438.1    
  1330.55     437.4    
  1334.10     437.2    
  1337.66     437.5    
  1341.22     438.9    
  1344.77     441.5    
  1348.33     446.4    
  1351.89     454.5    
  1355.44     468.0    
  1359.00     489.1    
  1362.56     517.2    
  1366.11     540.3    
  1369.67     536.6    
  1373.22     507.9    
  1376.78     476.5    
  1380.34     452.5    
  1383.89     435.8    
  1387.45     424.3    
  1391.01     415.9    
  1394.56     409.5    
  1398.12     404.5    
  1401.68     400.3    
  1405.23     396.8    
  1408.79     393.7    
  1412.34     390.9    
  1415.90     388.4    
  1419.46     386.1    
  1423.01     383.9    
  1426.57     381.8    
  1430.13     379.9    
  1433.68     378.1    
  1437.24     376.3    
  1440.80     374.6    
  1444.35     373.1    
  1447.91     371.6    
  1451.46     370.2    
  1455.02     369.0    
  1458.58     367.9    
  1462.13     367.1    
  1465.69     366.6    
  1469.25     366.7    
  1472.80     367.6    
  1476.36     369.6    
  1479.92     372.9    
  1483.47     375.7    
  1487.03     374.7    
  1490.59     369.5    
  1494.14     363.5    
  1497.70     358.6    
  1501.25     354.9    
  1504.81     352.1    
  1508.37     349.9    
  1511.92     348.0    
  1515.48     346.4    
  1519.04     344.9    
  1522.59     343.6    
  1526.15     342.3    
  1529.71     341.2    
  1533.26     340.1    
  1536.82     339.1    
  1540.37     338.2    
  1543.93     337.4    
  1547.49     336.6    
  1551.04     335.9    
  1554.60     335.3    
  1558.16     334.9    
  1561.71     334.6    
  1565.27     334.6    
  1568.83     334.9    
  1572.38     335.8    
  1575.94     337.5    
  1579.49     340.5    
  1583.05     344.9    
  1586.61     349.4    
  1590.16     350.3    
  1593.72     346.1    
  1597.28     340.4    
  1600.83     335.8    
  1604.39     332.6    
  1607.95     330.4    
  1611.50     329.0    
  1615.06     328.0    
  1618.61     327.3    
  1622.17     326.8    
  1625.73     326.6    
  1629.28     326.4    
  1632.84     326.4    
  1636.40     326.6    
  1639.95     326.8    
  1643.51     327.2    
  1647.07     327.7    
  1650.62     328.3    
  1654.18     329.0    
  1657.74     329.8    
  1661.29     330.8    
  1664.85     331.9    
  1668.40     333.1    
  1671.96     334.5    
  1675.52     336.1    
  1679.07     337.8    
  1682.63     339.8    
  1686.19     341.9    
  1689.74     344.3    
  1693.30     346.9    
  1696.86     349.8    
  1700.41     353.0    
  1703.97     356.5    
  1707.52     360.4    
  1711.08     364.6    
  1714.64     369.3    
  1718.19     374.5    
  1721.75     380.2    
  1725.31     386.5    
  1728.86     393.4    
  1732.42     401.1    
  1735.98     409.6    
  1739.53     419.1    
  1743.09     429.7    
  1746.64     441.4    
  1750.20     454.6    
  1753.76     469.5    
  1757.31     486.2    
  1760.87     505.0    
  1764.43     526.5    
  1767.98     551.0    
  1771.54     579.1    
  1775.10     611.5    
  1778.65     649.2    
  1782.21     693.2    
  1785.77     745.0    
  1789.32     806.6    
  1792.88     880.4    
  1796.43     970.0    
  1799.99     1080.    
  1803.55     1216.    
  1807.10     1389.    
  1810.66     1611.    
  1814.22     1902.    
  1817.77     2294.    
  1821.33     2833.    
  1824.89     3598.    
  1828.44     4718.    
  1832.00     6400.    
  1835.55     8946.    
  1839.11    0.1260E+05
  1842.67    0.1679E+05
  1846.22    0.1893E+05
  1849.78    0.1688E+05
  1853.34    0.1270E+05
  1856.89     9019.    
  1860.45     6448.    
  1864.01     4749.    
  1867.56     3619.    
  1871.12     2847.    
  1874.67     2304.    
  1878.23     1910.    
  1881.79     1617.    
  1885.34     1394.    
  1888.90     1221.    
  1892.46     1084.    
  1896.01     974.1    
  1899.57     885.1    
  1903.13     812.2    
  1906.68     752.0    
  1910.24     702.0    
  1913.80     660.6    
  1917.35     626.6    
  1920.91     599.2    
  1924.46     578.2    
  1928.02     564.1    
  1931.58     558.1    
  1935.13     562.2    
  1938.69     577.2    
  1942.25     594.6    
  1945.80     591.4    
  1949.36     559.1    
  1952.92     519.3    
  1956.47     487.7    
  1960.03     466.4    
  1963.58     453.4    
  1967.14     447.2    
  1970.70     447.3    
  1974.25     454.6    
  1977.81     471.1    
  1981.37     499.6    
  1984.92     538.1    
  1988.48     567.7    
  1992.04     560.3    
  1995.59     523.7    
  1999.15     487.2    
  2002.70     462.4    
  2006.26     448.7    
  2009.82     443.3    
  2013.37     444.5    
  2016.93     451.4    
  2020.49     463.5    
  2024.04     479.3    
  2027.60     497.2    
  2031.16     518.6    
  2034.71     541.6    
  2038.27     556.3    
  2041.83     561.3    
  2045.38     567.9    
  2048.94     582.9    
  2052.49     607.7    
  2056.05     642.7    
  2059.61     689.4    
  2063.16     750.8    
  2066.72     832.0    
  2070.28     941.6    
  2073.83     1092.    
  2077.39     1292.    
  2080.95     1523.    
  2084.50     1700.    
  2088.06     1774.    
  2091.61     1834.    
  2095.17     1975.    
  2098.73     2240.    
  2102.28     2662.    
  2105.84     3300.    
  2109.40     4257.    
  2112.95     5711.    
  2116.51     7922.    
  2120.07    0.1111E+05
  2123.62    0.1481E+05
  2127.18    0.1693E+05
  2130.73    0.1555E+05
  2134.29    0.1203E+05
  2137.85     8644.    
  2141.40     6201.    
  2144.96     4579.    
  2148.52     3511.    
  2152.07     2797.    
  2155.63     2315.    
  2159.19     1992.    
  2162.74     1783.    
  2166.30     1654.    
  2169.86     1568.    
  2173.41     1514.    
  2176.97     1512.    
  2180.52     1567.    
  2184.08     1692.    
  2187.64     1921.    
  2191.19     2262.    
  2194.75     2622.    
  2198.31     2745.    
  2201.86     2430.    
  2205.42     1907.    
  2208.98     1456.    
  2212.53     1137.    
  2216.09     920.1    
  2219.64     771.0    
  2223.20     664.9    
  2226.76     586.8    
  2230.31     527.4    
  2233.87     481.0    
  2237.43     443.8    
  2240.98     413.3    
  2244.54     387.9    
  2248.10     366.5    
  2251.65     348.1    
  2255.21     332.1    
  2258.76     318.1    
  2262.32     305.8    
  2265.88     294.8    
  2269.43     285.0    
  2272.99     276.1    
  2276.55     268.0    
  2280.10     260.7    
  2283.66     253.9    
  2287.22     247.7    
  2290.77     242.0    
  2294.33     236.7    
  2297.89     231.8    
  2301.44     227.3    
  2305.00     223.0    
  2308.55     219.0    
  2312.11     215.2    
  2315.67     211.7    
  2319.22     208.3    
  2322.78     205.2    
  2326.34     202.2    
  2329.89     199.3    
  2333.45     196.6    
  2337.01     194.1    
  2340.56     191.6    
  2344.12     189.3    
  2347.67     187.1    
  2351.23     184.9    
  2354.79     182.9    
  2358.34     180.9    
  2361.90     179.1    
  2365.46     177.2    
  2369.01     175.5    
  2372.57     173.8    
  2376.13     172.2    
  2379.68     170.6    
  2383.24     169.1    
  2386.79     167.7    
  2390.35     166.3    
  2393.91     164.9    
  2397.46     163.6    
  2401.02     162.3    
  2404.58     161.0    
  2408.13     159.8    
  2411.69     158.6    
  2415.25     157.5    
  2418.80     156.3    
  2422.36     155.3    
  2425.91     154.2    
  2429.47     153.2    
  2433.03     152.1    
  2436.58     151.2    
  2440.14     150.2    
  2443.70     149.3    
  2447.25     148.3    
  2450.81     147.4    
  2454.37     146.6    
  2457.92     145.7    
  2461.48     144.8    
  2465.04     144.0    
  2468.59     143.2    
  2472.15     142.4    
  2475.70     141.6    
  2479.26     140.9    
  2482.82     140.1    
  2486.37     139.4    
  2489.93     138.6    
  2493.49     137.9    
  2497.04     137.2    
  2500.60     136.5    
  2504.16     135.9    
  2507.71     135.2    
  2511.27     134.5    
  2514.82     133.9    
