
 ------------------------------------------------------------
     normal          Raman Scattering Plot
 ------------------------------------------------------------
 Excitation wavelength  514.50 nm
 Convolution lineshape is lorentzian  
 FWHM   20.00  1/cm
 ------------------------------------------------------------
 ------------------------------------------------------------
 # of frequencies :    30
 ------------------------------------------------------------
 #  freq [ 1/cm]  S [Ang**4/amu]
 ------------------------------------------------------------
   1   408.00        0.0000
   2   408.00        0.0000
   3   630.47        0.8136
   4   630.47        0.8120
   5   690.71        0.0000
   6   716.58        0.0002
   7   865.34        4.5002
   8   865.34        4.5577
   9   977.49       12.2298
  10   995.71        0.0000
  11   995.71        0.0000
  12  1022.38        0.0000
  13  1022.38        0.0000
  14  1027.65        0.0000
  15  1033.50        0.0000
  16  1182.66        0.0000
  17  1191.69        8.3835
  18  1191.69        8.3595
  19  1334.64        0.0000
  20  1381.83        0.0000
  21  1487.81        0.0000
  22  1487.81        0.0000
  23  1587.83        2.0968
  24  1587.83        2.0990
  25  3117.91        0.0000
  26  3124.37      172.7261
  27  3124.37      172.5986
  28  3140.72        0.0000
  29  3140.72        0.0000
  30  3154.84      398.6681
 ------------------------------------------------------------
   350.87    0.3229E-04
   353.74    0.3266E-04
   356.61    0.3303E-04
   359.48    0.3342E-04
   362.35    0.3381E-04
   365.22    0.3422E-04
   368.09    0.3463E-04
   370.96    0.3506E-04
   373.83    0.3549E-04
   376.70    0.3593E-04
   379.57    0.3639E-04
   382.44    0.3685E-04
   385.31    0.3733E-04
   388.18    0.3782E-04
   391.05    0.3833E-04
   393.92    0.3884E-04
   396.79    0.3937E-04
   399.66    0.3992E-04
   402.53    0.4048E-04
   405.40    0.4106E-04
   408.27    0.4165E-04
   411.14    0.4226E-04
   414.01    0.4288E-04
   416.88    0.4352E-04
   419.75    0.4418E-04
   422.62    0.4487E-04
   425.49    0.4557E-04
   428.36    0.4630E-04
   431.23    0.4705E-04
   434.09    0.4783E-04
   436.96    0.4863E-04
   439.83    0.4946E-04
   442.70    0.5032E-04
   445.57    0.5121E-04
   448.44    0.5213E-04
   451.31    0.5309E-04
   454.18    0.5408E-04
   457.05    0.5511E-04
   459.92    0.5618E-04
   462.79    0.5730E-04
   465.66    0.5846E-04
   468.53    0.5967E-04
   471.40    0.6093E-04
   474.27    0.6224E-04
   477.14    0.6362E-04
   480.01    0.6506E-04
   482.88    0.6657E-04
   485.75    0.6815E-04
   488.62    0.6981E-04
   491.49    0.7155E-04
   494.36    0.7338E-04
   497.23    0.7532E-04
   500.10    0.7735E-04
   502.97    0.7951E-04
   505.84    0.8179E-04
   508.71    0.8421E-04
   511.58    0.8677E-04
   514.45    0.8950E-04
   517.32    0.9241E-04
   520.19    0.9552E-04
   523.06    0.9884E-04
   525.93    0.1024E-03
   528.80    0.1062E-03
   531.66    0.1104E-03
   534.53    0.1148E-03
   537.40    0.1196E-03
   540.27    0.1249E-03
   543.14    0.1306E-03
   546.01    0.1368E-03
   548.88    0.1436E-03
   551.75    0.1512E-03
   554.62    0.1595E-03
   557.49    0.1687E-03
   560.36    0.1790E-03
   563.23    0.1904E-03
   566.10    0.2034E-03
   568.97    0.2180E-03
   571.84    0.2347E-03
   574.71    0.2538E-03
   577.58    0.2758E-03
   580.45    0.3014E-03
   583.32    0.3314E-03
   586.19    0.3668E-03
   589.06    0.4093E-03
   591.93    0.4605E-03
   594.80    0.5232E-03
   597.67    0.6010E-03
   600.54    0.6990E-03
   603.41    0.8245E-03
   606.28    0.9881E-03
   609.15    0.1206E-02
   612.02    0.1502E-02
   614.89    0.1910E-02
   617.76    0.2482E-02
   620.63    0.3276E-02
   623.50    0.4316E-02
   626.36    0.5471E-02
   629.23    0.6285E-02
   632.10    0.6216E-02
   634.97    0.5318E-02
   637.84    0.4163E-02
   640.71    0.3158E-02
   643.58    0.2403E-02
   646.45    0.1861E-02
   649.32    0.1474E-02
   652.19    0.1194E-02
   655.06    0.9885E-03
   657.93    0.8343E-03
   660.80    0.7166E-03
   663.67    0.6252E-03
   666.54    0.5532E-03
   669.41    0.4958E-03
   672.28    0.4494E-03
   675.15    0.4117E-03
   678.02    0.3807E-03
   680.89    0.3551E-03
   683.76    0.3339E-03
   686.63    0.3163E-03
   689.50    0.3017E-03
   692.37    0.2895E-03
   695.24    0.2795E-03
   698.11    0.2713E-03
   700.98    0.2646E-03
   703.85    0.2593E-03
   706.72    0.2552E-03
   709.59    0.2523E-03
   712.46    0.2503E-03
   715.33    0.2492E-03
   718.20    0.2488E-03
   721.07    0.2492E-03
   723.93    0.2502E-03
   726.80    0.2520E-03
   729.67    0.2545E-03
   732.54    0.2578E-03
   735.41    0.2617E-03
   738.28    0.2663E-03
   741.15    0.2716E-03
   744.02    0.2777E-03
   746.89    0.2845E-03
   749.76    0.2921E-03
   752.63    0.3006E-03
   755.50    0.3100E-03
   758.37    0.3203E-03
   761.24    0.3316E-03
   764.11    0.3441E-03
   766.98    0.3579E-03
   769.85    0.3729E-03
   772.72    0.3895E-03
   775.59    0.4078E-03
   778.46    0.4280E-03
   781.33    0.4502E-03
   784.20    0.4749E-03
   787.07    0.5022E-03
   789.94    0.5327E-03
   792.81    0.5667E-03
   795.68    0.6048E-03
   798.55    0.6477E-03
   801.42    0.6963E-03
   804.29    0.7514E-03
   807.16    0.8144E-03
   810.03    0.8869E-03
   812.90    0.9707E-03
   815.77    0.1068E-02
   818.63    0.1183E-02
   821.50    0.1320E-02
   824.37    0.1483E-02
   827.24    0.1681E-02
   830.11    0.1923E-02
   832.98    0.2224E-02
   835.85    0.2605E-02
   838.72    0.3094E-02
   841.59    0.3733E-02
   844.46    0.4586E-02
   847.33    0.5747E-02
   850.20    0.7356E-02
   853.07    0.9606E-02
   855.94    0.1271E-01
   858.81    0.1672E-01
   861.68    0.2098E-01
   864.55    0.2362E-01
   867.42    0.2280E-01
   870.29    0.1916E-01
   873.16    0.1488E-01
   876.03    0.1128E-01
   878.90    0.8605E-02
   881.77    0.6696E-02
   884.64    0.5336E-02
   887.51    0.4355E-02
   890.38    0.3637E-02
   893.25    0.3102E-02
   896.12    0.2699E-02
   898.99    0.2393E-02
   901.86    0.2158E-02
   904.73    0.1979E-02
   907.60    0.1845E-02
   910.47    0.1746E-02
   913.34    0.1677E-02
   916.20    0.1635E-02
   919.07    0.1616E-02
   921.94    0.1621E-02
   924.81    0.1649E-02
   927.68    0.1701E-02
   930.55    0.1780E-02
   933.42    0.1888E-02
   936.29    0.2032E-02
   939.16    0.2219E-02
   942.03    0.2461E-02
   944.90    0.2771E-02
   947.77    0.3174E-02
   950.64    0.3701E-02
   953.51    0.4399E-02
   956.38    0.5338E-02
   959.25    0.6625E-02
   962.12    0.8417E-02
   964.99    0.1093E-01
   967.86    0.1442E-01
   970.73    0.1897E-01
   973.60    0.2393E-01
   976.47    0.2723E-01
   979.34    0.2661E-01
   982.21    0.2254E-01
   985.08    0.1754E-01
   987.95    0.1326E-01
   990.82    0.1005E-01
   993.69    0.7751E-02
   996.56    0.6105E-02
   999.43    0.4911E-02
  1002.30    0.4028E-02
  1005.17    0.3363E-02
  1008.04    0.2852E-02
  1010.91    0.2452E-02
  1013.77    0.2134E-02
  1016.64    0.1878E-02
  1019.51    0.1669E-02
  1022.38    0.1497E-02
  1025.25    0.1353E-02
  1028.12    0.1232E-02
  1030.99    0.1130E-02
  1033.86    0.1042E-02
  1036.73    0.9675E-03
  1039.60    0.9031E-03
  1042.47    0.8473E-03
  1045.34    0.7990E-03
  1048.21    0.7570E-03
  1051.08    0.7205E-03
  1053.95    0.6887E-03
  1056.82    0.6612E-03
  1059.69    0.6375E-03
  1062.56    0.6171E-03
  1065.43    0.5997E-03
  1068.30    0.5852E-03
  1071.17    0.5732E-03
  1074.04    0.5636E-03
  1076.91    0.5563E-03
  1079.78    0.5513E-03
  1082.65    0.5483E-03
  1085.52    0.5475E-03
  1088.39    0.5488E-03
  1091.26    0.5522E-03
  1094.13    0.5578E-03
  1097.00    0.5657E-03
  1099.87    0.5760E-03
  1102.74    0.5889E-03
  1105.61    0.6045E-03
  1108.47    0.6232E-03
  1111.34    0.6452E-03
  1114.21    0.6710E-03
  1117.08    0.7009E-03
  1119.95    0.7356E-03
  1122.82    0.7757E-03
  1125.69    0.8221E-03
  1128.56    0.8758E-03
  1131.43    0.9382E-03
  1134.30    0.1011E-02
  1137.17    0.1096E-02
  1140.04    0.1195E-02
  1142.91    0.1313E-02
  1145.78    0.1453E-02
  1148.65    0.1621E-02
  1151.52    0.1825E-02
  1154.39    0.2074E-02
  1157.26    0.2382E-02
  1160.13    0.2769E-02
  1163.00    0.3262E-02
  1165.87    0.3901E-02
  1168.74    0.4743E-02
  1171.61    0.5876E-02
  1174.48    0.7431E-02
  1177.35    0.9598E-02
  1180.22    0.1263E-01
  1183.09    0.1678E-01
  1185.96    0.2194E-01
  1188.83    0.2692E-01
  1191.70    0.2912E-01
  1194.57    0.2691E-01
  1197.44    0.2192E-01
  1200.31    0.1676E-01
  1203.18    0.1261E-01
  1206.04    0.9573E-02
  1208.91    0.7404E-02
  1211.78    0.5846E-02
  1214.65    0.4710E-02
  1217.52    0.3864E-02
  1220.39    0.3221E-02
  1223.26    0.2724E-02
  1226.13    0.2333E-02
  1229.00    0.2020E-02
  1231.87    0.1767E-02
  1234.74    0.1559E-02
  1237.61    0.1386E-02
  1240.48    0.1241E-02
  1243.35    0.1118E-02
  1246.22    0.1013E-02
  1249.09    0.9227E-03
  1251.96    0.8444E-03
  1254.83    0.7761E-03
  1257.70    0.7162E-03
  1260.57    0.6633E-03
  1263.44    0.6164E-03
  1266.31    0.5746E-03
  1269.18    0.5373E-03
  1272.05    0.5037E-03
  1274.92    0.4734E-03
  1277.79    0.4460E-03
  1280.66    0.4212E-03
  1283.53    0.3985E-03
  1286.40    0.3778E-03
  1289.27    0.3589E-03
  1292.14    0.3415E-03
  1295.01    0.3255E-03
  1297.88    0.3108E-03
  1300.74    0.2971E-03
  1303.61    0.2845E-03
  1306.48    0.2728E-03
  1309.35    0.2619E-03
  1312.22    0.2517E-03
  1315.09    0.2422E-03
  1317.96    0.2334E-03
  1320.83    0.2251E-03
  1323.70    0.2174E-03
  1326.57    0.2101E-03
  1329.44    0.2033E-03
  1332.31    0.1969E-03
  1335.18    0.1908E-03
  1338.05    0.1851E-03
  1340.92    0.1798E-03
  1343.79    0.1747E-03
  1346.66    0.1699E-03
  1349.53    0.1654E-03
  1352.40    0.1611E-03
  1355.27    0.1571E-03
  1358.14    0.1533E-03
  1361.01    0.1496E-03
  1363.88    0.1462E-03
  1366.75    0.1429E-03
  1369.62    0.1399E-03
  1372.49    0.1369E-03
  1375.36    0.1342E-03
  1378.23    0.1315E-03
  1381.10    0.1290E-03
  1383.97    0.1267E-03
  1386.84    0.1244E-03
  1389.71    0.1223E-03
  1392.58    0.1203E-03
  1395.45    0.1184E-03
  1398.31    0.1166E-03
  1401.18    0.1149E-03
  1404.05    0.1134E-03
  1406.92    0.1119E-03
  1409.79    0.1105E-03
  1412.66    0.1092E-03
  1415.53    0.1080E-03
  1418.40    0.1069E-03
  1421.27    0.1058E-03
  1424.14    0.1049E-03
  1427.01    0.1040E-03
  1429.88    0.1033E-03
  1432.75    0.1026E-03
  1435.62    0.1020E-03
  1438.49    0.1015E-03
  1441.36    0.1011E-03
  1444.23    0.1008E-03
  1447.10    0.1005E-03
  1449.97    0.1004E-03
  1452.84    0.1004E-03
  1455.71    0.1005E-03
  1458.58    0.1007E-03
  1461.45    0.1010E-03
  1464.32    0.1015E-03
  1467.19    0.1021E-03
  1470.06    0.1028E-03
  1472.93    0.1037E-03
  1475.80    0.1047E-03
  1478.67    0.1059E-03
  1481.54    0.1073E-03
  1484.41    0.1089E-03
  1487.28    0.1108E-03
  1490.15    0.1129E-03
  1493.02    0.1153E-03
  1495.88    0.1180E-03
  1498.75    0.1211E-03
  1501.62    0.1245E-03
  1504.49    0.1284E-03
  1507.36    0.1328E-03
  1510.23    0.1378E-03
  1513.10    0.1434E-03
  1515.97    0.1498E-03
  1518.84    0.1571E-03
  1521.71    0.1654E-03
  1524.58    0.1750E-03
  1527.45    0.1859E-03
  1530.32    0.1986E-03
  1533.19    0.2134E-03
  1536.06    0.2306E-03
  1538.93    0.2509E-03
  1541.80    0.2750E-03
  1544.67    0.3038E-03
  1547.54    0.3387E-03
  1550.41    0.3812E-03
  1553.28    0.4339E-03
  1556.15    0.4998E-03
  1559.02    0.5837E-03
  1561.89    0.6923E-03
  1564.76    0.8354E-03
  1567.63    0.1028E-02
  1570.50    0.1291E-02
  1573.37    0.1659E-02
  1576.24    0.2173E-02
  1579.11    0.2877E-02
  1581.98    0.3759E-02
  1584.85    0.4623E-02
  1587.72    0.5030E-02
  1590.58    0.4678E-02
  1593.45    0.3831E-02
  1596.32    0.2939E-02
  1599.19    0.2219E-02
  1602.06    0.1690E-02
  1604.93    0.1312E-02
  1607.80    0.1041E-02
  1610.67    0.8434E-03
  1613.54    0.6963E-03
  1616.41    0.5847E-03
  1619.28    0.4985E-03
  1622.15    0.4306E-03
  1625.02    0.3764E-03
  1627.89    0.3324E-03
  1630.76    0.2963E-03
  1633.63    0.2664E-03
  1636.50    0.2412E-03
  1639.37    0.2199E-03
  1642.24    0.2017E-03
  1645.11    0.1861E-03
  1647.98    0.1725E-03
  1650.85    0.1607E-03
  1653.72    0.1503E-03
  1656.59    0.1411E-03
  1659.46    0.1329E-03
  1662.33    0.1257E-03
  1665.20    0.1192E-03
  1668.07    0.1133E-03
  1670.94    0.1080E-03
  1673.81    0.1033E-03
  1676.68    0.9893E-04
  1679.55    0.9497E-04
  1682.42    0.9135E-04
  1685.29    0.8803E-04
  1688.15    0.8498E-04
  1691.02    0.8217E-04
  1693.89    0.7957E-04
  1696.76    0.7716E-04
  1699.63    0.7493E-04
  1702.50    0.7286E-04
  1705.37    0.7092E-04
  1708.24    0.6912E-04
  1711.11    0.6743E-04
  1713.98    0.6586E-04
  1716.85    0.6438E-04
  1719.72    0.6299E-04
  1722.59    0.6168E-04
  1725.46    0.6045E-04
  1728.33    0.5929E-04
  1731.20    0.5820E-04
  1734.07    0.5716E-04
  1736.94    0.5618E-04
  1739.81    0.5526E-04
  1742.68    0.5438E-04
  1745.55    0.5354E-04
  1748.42    0.5275E-04
  1751.29    0.5200E-04
  1754.16    0.5128E-04
  1757.03    0.5060E-04
  1759.90    0.4995E-04
  1762.77    0.4933E-04
  1765.64    0.4873E-04
  1768.51    0.4817E-04
  1771.38    0.4763E-04
  1774.25    0.4711E-04
  1777.12    0.4662E-04
  1779.99    0.4615E-04
  1782.85    0.4569E-04
  1785.72    0.4526E-04
  1788.59    0.4485E-04
  1791.46    0.4445E-04
  1794.33    0.4406E-04
  1797.20    0.4370E-04
  1800.07    0.4335E-04
  1802.94    0.4301E-04
  1805.81    0.4268E-04
  1808.68    0.4237E-04
  1811.55    0.4207E-04
  1814.42    0.4178E-04
  1817.29    0.4151E-04
  1820.16    0.4124E-04
  1823.03    0.4099E-04
  1825.90    0.4074E-04
  1828.77    0.4050E-04
  1831.64    0.4028E-04
  1834.51    0.4006E-04
  1837.38    0.3985E-04
  1840.25    0.3965E-04
  1843.12    0.3945E-04
  1845.99    0.3926E-04
  1848.86    0.3908E-04
  1851.73    0.3891E-04
  1854.60    0.3875E-04
  1857.47    0.3859E-04
  1860.34    0.3843E-04
  1863.21    0.3829E-04
  1866.08    0.3814E-04
  1868.95    0.3801E-04
  1871.82    0.3788E-04
  1874.69    0.3775E-04
  1877.56    0.3764E-04
  1880.42    0.3752E-04
  1883.29    0.3741E-04
  1886.16    0.3731E-04
  1889.03    0.3721E-04
  1891.90    0.3711E-04
  1894.77    0.3702E-04
  1897.64    0.3693E-04
  1900.51    0.3685E-04
  1903.38    0.3677E-04
  1906.25    0.3670E-04
  1909.12    0.3663E-04
  1911.99    0.3656E-04
  1914.86    0.3650E-04
  1917.73    0.3644E-04
  1920.60    0.3638E-04
  1923.47    0.3633E-04
  1926.34    0.3628E-04
  1929.21    0.3624E-04
  1932.08    0.3619E-04
  1934.95    0.3615E-04
  1937.82    0.3612E-04
  1940.69    0.3609E-04
  1943.56    0.3606E-04
  1946.43    0.3603E-04
  1949.30    0.3600E-04
  1952.17    0.3598E-04
  1955.04    0.3596E-04
  1957.91    0.3595E-04
  1960.78    0.3594E-04
  1963.65    0.3593E-04
  1966.52    0.3592E-04
  1969.39    0.3591E-04
  1972.26    0.3591E-04
  1975.13    0.3591E-04
  1977.99    0.3592E-04
  1980.86    0.3592E-04
  1983.73    0.3593E-04
  1986.60    0.3594E-04
  1989.47    0.3595E-04
  1992.34    0.3597E-04
  1995.21    0.3599E-04
  1998.08    0.3601E-04
  2000.95    0.3603E-04
  2003.82    0.3605E-04
  2006.69    0.3608E-04
  2009.56    0.3611E-04
  2012.43    0.3614E-04
  2015.30    0.3617E-04
  2018.17    0.3621E-04
  2021.04    0.3625E-04
  2023.91    0.3629E-04
  2026.78    0.3633E-04
  2029.65    0.3637E-04
  2032.52    0.3642E-04
  2035.39    0.3647E-04
  2038.26    0.3652E-04
  2041.13    0.3657E-04
  2044.00    0.3663E-04
  2046.87    0.3668E-04
  2049.74    0.3674E-04
  2052.61    0.3680E-04
  2055.48    0.3687E-04
  2058.35    0.3693E-04
  2061.22    0.3700E-04
  2064.09    0.3707E-04
  2066.96    0.3714E-04
  2069.83    0.3721E-04
  2072.69    0.3729E-04
  2075.56    0.3736E-04
  2078.43    0.3744E-04
  2081.30    0.3752E-04
  2084.17    0.3761E-04
  2087.04    0.3769E-04
  2089.91    0.3778E-04
  2092.78    0.3787E-04
  2095.65    0.3796E-04
  2098.52    0.3805E-04
  2101.39    0.3815E-04
  2104.26    0.3825E-04
  2107.13    0.3835E-04
  2110.00    0.3845E-04
  2112.87    0.3855E-04
  2115.74    0.3866E-04
  2118.61    0.3876E-04
  2121.48    0.3887E-04
  2124.35    0.3899E-04
  2127.22    0.3910E-04
  2130.09    0.3922E-04
  2132.96    0.3933E-04
  2135.83    0.3945E-04
  2138.70    0.3958E-04
  2141.57    0.3970E-04
  2144.44    0.3983E-04
  2147.31    0.3995E-04
  2150.18    0.4009E-04
  2153.05    0.4022E-04
  2155.92    0.4035E-04
  2158.79    0.4049E-04
  2161.66    0.4063E-04
  2164.53    0.4077E-04
  2167.40    0.4091E-04
  2170.26    0.4106E-04
  2173.13    0.4121E-04
  2176.00    0.4136E-04
  2178.87    0.4151E-04
  2181.74    0.4166E-04
  2184.61    0.4182E-04
  2187.48    0.4198E-04
  2190.35    0.4214E-04
  2193.22    0.4231E-04
  2196.09    0.4247E-04
  2198.96    0.4264E-04
  2201.83    0.4281E-04
  2204.70    0.4298E-04
  2207.57    0.4316E-04
  2210.44    0.4334E-04
  2213.31    0.4352E-04
  2216.18    0.4370E-04
  2219.05    0.4389E-04
  2221.92    0.4408E-04
  2224.79    0.4427E-04
  2227.66    0.4446E-04
  2230.53    0.4465E-04
  2233.40    0.4485E-04
  2236.27    0.4505E-04
  2239.14    0.4526E-04
  2242.01    0.4546E-04
  2244.88    0.4567E-04
  2247.75    0.4588E-04
  2250.62    0.4610E-04
  2253.49    0.4632E-04
  2256.36    0.4654E-04
  2259.23    0.4676E-04
  2262.10    0.4698E-04
  2264.96    0.4721E-04
  2267.83    0.4744E-04
  2270.70    0.4768E-04
  2273.57    0.4792E-04
  2276.44    0.4816E-04
  2279.31    0.4840E-04
  2282.18    0.4865E-04
  2285.05    0.4890E-04
  2287.92    0.4915E-04
  2290.79    0.4941E-04
  2293.66    0.4967E-04
  2296.53    0.4993E-04
  2299.40    0.5019E-04
  2302.27    0.5046E-04
  2305.14    0.5074E-04
  2308.01    0.5101E-04
  2310.88    0.5129E-04
  2313.75    0.5157E-04
  2316.62    0.5186E-04
  2319.49    0.5215E-04
  2322.36    0.5245E-04
  2325.23    0.5274E-04
  2328.10    0.5304E-04
  2330.97    0.5335E-04
  2333.84    0.5366E-04
  2336.71    0.5397E-04
  2339.58    0.5429E-04
  2342.45    0.5461E-04
  2345.32    0.5493E-04
  2348.19    0.5526E-04
  2351.06    0.5559E-04
  2353.93    0.5593E-04
  2356.80    0.5627E-04
  2359.67    0.5662E-04
  2362.53    0.5697E-04
  2365.40    0.5732E-04
  2368.27    0.5768E-04
  2371.14    0.5804E-04
  2374.01    0.5841E-04
  2376.88    0.5878E-04
  2379.75    0.5916E-04
  2382.62    0.5954E-04
  2385.49    0.5993E-04
  2388.36    0.6032E-04
  2391.23    0.6072E-04
  2394.10    0.6112E-04
  2396.97    0.6153E-04
  2399.84    0.6194E-04
  2402.71    0.6236E-04
  2405.58    0.6278E-04
  2408.45    0.6321E-04
  2411.32    0.6364E-04
  2414.19    0.6408E-04
  2417.06    0.6452E-04
  2419.93    0.6498E-04
  2422.80    0.6543E-04
  2425.67    0.6590E-04
  2428.54    0.6636E-04
  2431.41    0.6684E-04
  2434.28    0.6732E-04
  2437.15    0.6781E-04
  2440.02    0.6830E-04
  2442.89    0.6880E-04
  2445.76    0.6931E-04
  2448.63    0.6982E-04
  2451.50    0.7034E-04
  2454.37    0.7087E-04
  2457.24    0.7141E-04
  2460.10    0.7195E-04
  2462.97    0.7250E-04
  2465.84    0.7306E-04
  2468.71    0.7362E-04
  2471.58    0.7419E-04
  2474.45    0.7477E-04
  2477.32    0.7536E-04
  2480.19    0.7596E-04
  2483.06    0.7656E-04
  2485.93    0.7717E-04
  2488.80    0.7780E-04
  2491.67    0.7843E-04
  2494.54    0.7906E-04
  2497.41    0.7971E-04
  2500.28    0.8037E-04
  2503.15    0.8104E-04
  2506.02    0.8171E-04
  2508.89    0.8240E-04
  2511.76    0.8309E-04
  2514.63    0.8380E-04
  2517.50    0.8451E-04
  2520.37    0.8524E-04
  2523.24    0.8597E-04
  2526.11    0.8672E-04
  2528.98    0.8748E-04
  2531.85    0.8825E-04
  2534.72    0.8903E-04
  2537.59    0.8982E-04
  2540.46    0.9062E-04
  2543.33    0.9144E-04
  2546.20    0.9227E-04
  2549.07    0.9311E-04
  2551.94    0.9396E-04
  2554.80    0.9483E-04
  2557.67    0.9571E-04
  2560.54    0.9660E-04
  2563.41    0.9751E-04
